TITLE	
DATA TYPE	ULTRAVIOLET SPECTRUM
ORIGIN	JASCO
OWNER	
DATE	25/11/19
TIME	12:51:05
SPECTROMETER/DATA SYSTEM	
LOCALE	2057
RESOLUTION	
DELTAX	-0.2
XUNITS	NANOMETERS
YUNITS	ABSORBANCE
FIRSTX	  900.0000
LASTX	  200.0000
NPOINTS	    3501
FIRSTY	    -0.00292
MAXY	     2.34215
MINY	    -0.00739
XYDATA
900.0000	-0.00292151
899.8000	-0.00308236
899.6000	-0.00252095
899.4000	-0.00195864
899.2000	-0.00200046
899.0000	-0.00223858
898.8000	-0.00271161
898.6000	-0.00277825
898.4000	-0.00286348
898.2000	-0.00259632
898.0000	-0.00342109
897.8000	-0.00378614
897.6000	-0.00302474
897.4000	-0.00342929
897.2000	-0.00432635
897.0000	-0.00455199
896.8000	-0.00387553
896.6000	-0.0033984
896.4000	-0.00396385
896.2000	-0.00351464
896.0000	-0.00212774
895.8000	-0.00276382
895.6000	-0.00410254
895.4000	-0.00433294
895.2000	-0.00383782
895.0000	-0.00289971
894.8000	-0.00288587
894.6000	-0.0037151
894.4000	-0.00337352
894.2000	-0.00256531
894.0000	-0.00255041
893.8000	-0.00278152
893.6000	-0.0031847
893.4000	-0.00332885
893.2000	-0.00394853
893.0000	-0.00489435
892.8000	-0.00392869
892.6000	-0.00327195
892.4000	-0.00359221
892.2000	-0.00383871
892.0000	-0.0035874
891.8000	-0.00339312
891.6000	-0.00410949
891.4000	-0.00437868
891.2000	-0.00485147
891.0000	-0.00568236
890.8000	-0.00495303
890.6000	-0.00456013
890.4000	-0.00458852
890.2000	-0.00414299
890.0000	-0.003912
889.8000	-0.00410581
889.6000	-0.00434375
889.4000	-0.0043646
889.2000	-0.00475317
889.0000	-0.00469086
888.8000	-0.00426576
888.6000	-0.00400828
888.4000	-0.00455799
888.2000	-0.00442132
888.0000	-0.00345976
887.8000	-0.0039256
887.6000	-0.00446189
887.4000	-0.00423636
887.2000	-0.00434298
887.0000	-0.00401185
886.8000	-0.00405425
886.6000	-0.00433027
886.4000	-0.00403489
886.2000	-0.00391937
886.0000	-0.00381881
885.8000	-0.00389668
885.6000	-0.00423511
885.4000	-0.00505223
885.2000	-0.00541567
885.0000	-0.00519335
884.8000	-0.00497365
884.6000	-0.00523445
884.4000	-0.0051175
884.2000	-0.00422211
884.0000	-0.00422282
883.8000	-0.00423999
883.6000	-0.00460569
883.4000	-0.0048131
883.2000	-0.0048583
883.0000	-0.00548356
882.8000	-0.00558382
882.6000	-0.00528369
882.4000	-0.00568895
882.2000	-0.00525304
882.0000	-0.0048656
881.8000	-0.00509618
881.6000	-0.00511388
881.4000	-0.00506084
881.2000	-0.00490641
881.0000	-0.00523897
880.8000	-0.00501142
880.6000	-0.00475406
880.4000	-0.00517417
880.2000	-0.00547869
880.0000	-0.00493706
879.8000	-0.00507266
879.6000	-0.00552157
879.4000	-0.00541704
879.2000	-0.00534154
879.0000	-0.00562665
878.8000	-0.00521046
878.6000	-0.00476421
878.4000	-0.00506559
878.2000	-0.00528066
878.0000	-0.00553904
877.8000	-0.0056036
877.6000	-0.00533323
877.4000	-0.00541579
877.2000	-0.0050622
877.0000	-0.00498713
876.8000	-0.00554646
876.6000	-0.00523796
876.4000	-0.00541365
876.2000	-0.00555258
876.0000	-0.00533044
875.8000	-0.00563597
875.6000	-0.00571152
875.4000	-0.0056172
875.2000	-0.00567927
875.0000	-0.00548992
874.8000	-0.00531642
874.6000	-0.00539993
874.4000	-0.00550518
874.2000	-0.00562528
874.0000	-0.0058754
873.8000	-0.00558923
873.6000	-0.00510521
873.4000	-0.00563781
873.2000	-0.00568854
873.0000	-0.00550292
872.8000	-0.00532574
872.6000	-0.00543687
872.4000	-0.00582259
872.2000	-0.00571592
872.0000	-0.00586364
871.8000	-0.00610383
871.6000	-0.0062863
871.4000	-0.00602216
871.2000	-0.00565444
871.0000	-0.00564975
870.8000	-0.00586672
870.6000	-0.00599971
870.4000	-0.00657758
870.2000	-0.00631956
870.0000	-0.00569804
869.8000	-0.00624609
869.6000	-0.00619655
869.4000	-0.00598177
869.2000	-0.00629218
869.0000	-0.00635532
868.8000	-0.00629307
868.6000	-0.00611714
868.4000	-0.00571728
868.2000	-0.00521034
868.0000	-0.00541282
867.8000	-0.00584861
867.6000	-0.0059516
867.4000	-0.00587569
867.2000	-0.00600423
867.0000	-0.00616489
866.8000	-0.00612985
866.6000	-0.00588252
866.4000	-0.00587118
866.2000	-0.00641299
866.0000	-0.00634664
865.8000	-0.00605352
865.6000	-0.00590355
865.4000	-0.00593913
865.2000	-0.00640218
865.0000	-0.00647595
864.8000	-0.00636351
864.6000	-0.00643271
864.4000	-0.00630162
864.2000	-0.00622245
864.0000	-0.00631528
863.8000	-0.00647708
863.6000	-0.00632734
863.4000	-0.00572162
863.2000	-0.00571996
863.0000	-0.00611322
862.8000	-0.00610847
862.6000	-0.0062187
862.4000	-0.00625446
862.2000	-0.00634676
862.0000	-0.00672595
861.8000	-0.00630946
861.6000	-0.00588787
861.4000	-0.00616495
861.2000	-0.0063827
861.0000	-0.00670231
860.8000	-0.00661054
860.6000	-0.00644221
860.4000	-0.00642926
860.2000	-0.00608097
860.0000	-0.00639517
859.8000	-0.00689932
859.6000	-0.0068568
859.4000	-0.00654776
859.2000	-0.00631766
859.0000	-0.0064254
858.8000	-0.00644601
858.6000	-0.00670468
858.4000	-0.0068527
858.2000	-0.00692837
858.0000	-0.00658274
857.8000	-0.006164
857.6000	-0.00608952
857.4000	-0.0065028
857.2000	-0.00642505
857.0000	-0.00590284
856.8000	-0.00653891
856.6000	-0.00682395
856.4000	-0.00648135
856.2000	-0.00648224
856.0000	-0.00651307
855.8000	-0.00642766
855.6000	-0.00652067
855.4000	-0.00634967
855.2000	-0.00679817
855.0000	-0.00669868
854.8000	-0.00655667
854.6000	-0.00666768
854.4000	-0.00611856
854.2000	-0.00647767
854.0000	-0.00666732
853.8000	-0.00677631
853.6000	-0.00676301
853.4000	-0.00639636
853.2000	-0.00694381
853.0000	-0.00725683
852.8000	-0.00672672
852.6000	-0.00636446
852.4000	-0.00625802
852.2000	-0.00639677
852.0000	-0.00656552
851.8000	-0.00669714
851.6000	-0.00655168
851.4000	-0.00639042
851.2000	-0.0068837
851.0000	-0.0069842
850.8000	-0.00681391
850.6000	-0.00683785
850.4000	-0.00702067
850.2000	-0.007232
850.0000	-0.00652061
849.8000	-0.00620605
849.6000	-0.00655506
849.4000	-0.00655643
849.2000	-0.00673486
849.0000	-0.00660038
848.8000	-0.00639743
848.6000	-0.00660323
848.4000	-0.00655198
848.2000	-0.00644886
848.0000	-0.00607372
847.8000	-0.00620213
847.6000	-0.00697707
847.4000	-0.00681748
847.2000	-0.00631303
847.0000	-0.00663994
846.8000	-0.00653897
846.6000	-0.00622286
846.4000	-0.00647743
846.2000	-0.00664944
846.0000	-0.00668437
845.8000	-0.00645837
845.6000	-0.00612468
845.4000	-0.00625292
845.2000	-0.0063565
845.0000	-0.00690265
844.8000	-0.00723194
844.6000	-0.00674988
844.4000	-0.0067604
844.2000	-0.00672137
844.0000	-0.00713798
843.8000	-0.00729645
843.6000	-0.00661796
843.4000	-0.0065259
843.2000	-0.00651212
843.0000	-0.00654218
842.8000	-0.00702625
842.6000	-0.00720901
842.4000	-0.00703552
842.2000	-0.00631825
842.0000	-0.00630851
841.8000	-0.00672369
841.6000	-0.00642297
841.4000	-0.00647821
841.2000	-0.0065335
841.0000	-0.00638828
840.8000	-0.00658696
840.6000	-0.00701117
840.4000	-0.00717314
840.2000	-0.00697886
840.0000	-0.00682389
839.8000	-0.00652935
839.6000	-0.00661802
839.4000	-0.00675238
839.2000	-0.00640105
839.0000	-0.0065926
838.8000	-0.00683725
838.6000	-0.00668092
838.4000	-0.00626848
838.2000	-0.00634849
838.0000	-0.00717605
837.8000	-0.0070193
837.6000	-0.00653808
837.4000	-0.0065755
837.2000	-0.0069646
837.0000	-0.00721893
836.8000	-0.00704015
836.6000	-0.00691269
836.4000	-0.00676788
836.2000	-0.00687628
836.0000	-0.00679823
835.8000	-0.00643259
835.6000	-0.00639173
835.4000	-0.0068875
835.2000	-0.00677572
835.0000	-0.00660882
834.8000	-0.00667261
834.6000	-0.00638145
834.4000	-0.00649157
834.2000	-0.00664796
834.0000	-0.0063868
833.8000	-0.00674115
833.6000	-0.00709747
833.4000	-0.00685935
833.2000	-0.00695937
833.0000	-0.00667314
832.8000	-0.0063173
832.6000	-0.00649169
832.4000	-0.00624917
832.2000	-0.00614404
832.0000	-0.00668271
831.8000	-0.00688234
831.6000	-0.00645059
831.4000	-0.00656629
831.2000	-0.00685406
831.0000	-0.00631475
830.8000	-0.00622464
830.6000	-0.00661998
830.4000	-0.00675416
830.2000	-0.00666798
830.0000	-0.00643485
829.8000	-0.00614612
829.6000	-0.00664339
829.4000	-0.00656178
829.2000	-0.00575055
829.0000	-0.00619798
828.8000	-0.0064576
828.6000	-0.00643384
828.4000	-0.00649074
828.2000	-0.00625571
828.0000	-0.0063982
827.8000	-0.00657306
827.6000	-0.00670278
827.4000	-0.00652513
827.2000	-0.00628291
827.0000	-0.0063258
826.8000	-0.00627668
826.6000	-0.00660205
826.4000	-0.00649947
826.2000	-0.00607598
826.0000	-0.00625286
825.8000	-0.00640123
825.6000	-0.00628731
825.4000	-0.00630631
825.2000	-0.00649644
825.0000	-0.00618681
824.8000	-0.0063669
824.6000	-0.00687265
824.4000	-0.0067503
824.2000	-0.00651438
824.0000	-0.00608334
823.8000	-0.00617083
823.6000	-0.00705601
823.4000	-0.00738976
823.2000	-0.00666697
823.0000	-0.0061125
822.8000	-0.00635318
822.6000	-0.00664368
822.4000	-0.00658405
822.2000	-0.00638668
822.0000	-0.00653802
821.8000	-0.00677043
821.6000	-0.00639226
821.4000	-0.00613115
821.2000	-0.00629645
821.0000	-0.00668461
820.8000	-0.00675214
820.6000	-0.00678647
820.4000	-0.00677857
820.2000	-0.00656576
820.0000	-0.0068941
819.8000	-0.00654788
819.6000	-0.0065
819.4000	-0.00668324
819.2000	-0.00636898
819.0000	-0.00637789
818.8000	-0.0066321
818.6000	-0.00685537
818.4000	-0.00665479
818.2000	-0.00674608
818.0000	-0.00639838
817.8000	-0.00587902
817.6000	-0.00640022
817.4000	-0.00678451
817.2000	-0.00649781
817.0000	-0.00639689
816.8000	-0.00631445
816.6000	-0.00596265
816.4000	-0.00634266
816.2000	-0.00656748
816.0000	-0.00613905
815.8000	-0.00633987
815.6000	-0.00631053
815.4000	-0.00580875
815.2000	-0.00619708
815.0000	-0.00642558
814.8000	-0.00629835
814.6000	-0.00622963
814.4000	-0.00628873
814.2000	-0.00671906
814.0000	-0.00705637
813.8000	-0.00673147
813.6000	-0.00610039
813.4000	-0.00614594
813.2000	-0.00635258
813.0000	-0.00648985
812.8000	-0.00645932
812.6000	-0.00607235
812.4000	-0.00621419
812.2000	-0.00670789
812.0000	-0.0066754
811.8000	-0.00661084
811.6000	-0.00646995
811.4000	-0.00631255
811.2000	-0.00659569
811.0000	-0.00685804
810.8000	-0.00663703
810.6000	-0.00665604
810.4000	-0.00652828
810.2000	-0.00635924
810.0000	-0.00640604
809.8000	-0.00612896
809.6000	-0.00654835
809.4000	-0.00672654
809.2000	-0.0064927
809.0000	-0.00663317
808.8000	-0.00640574
808.6000	-0.00632455
808.4000	-0.00607633
808.2000	-0.00557218
808.0000	-0.00594144
807.8000	-0.0063887
807.6000	-0.00617826
807.4000	-0.00601717
807.2000	-0.00614012
807.0000	-0.00627721
806.8000	-0.00632645
806.6000	-0.00663638
806.4000	-0.00669399
806.2000	-0.00631671
806.0000	-0.00624139
805.8000	-0.00618722
805.6000	-0.00621728
805.4000	-0.00613804
805.2000	-0.00586037
805.0000	-0.00601195
804.8000	-0.00629758
804.6000	-0.00606148
804.4000	-0.00615735
804.2000	-0.00600031
804.0000	-0.00580662
803.8000	-0.00617232
803.6000	-0.00621948
803.4000	-0.00638638
803.2000	-0.00659967
803.0000	-0.00651563
802.8000	-0.00620011
802.6000	-0.00628279
802.4000	-0.00615022
802.2000	-0.00593723
802.0000	-0.00613876
801.8000	-0.0062784
801.6000	-0.00624211
801.4000	-0.00610449
801.2000	-0.00618093
801.0000	-0.00618271
800.8000	-0.00611037
800.6000	-0.00588235
800.4000	-0.00587664
800.2000	-0.006487
800.0000	-0.00656445
799.8000	-0.00614559
799.6000	-0.00627679
799.4000	-0.00610686
799.2000	-0.00604551
799.0000	-0.00638525
798.8000	-0.00616947
798.6000	-0.00590248
798.4000	-0.00586055
798.2000	-0.00596693
798.0000	-0.00598474
797.8000	-0.00582984
797.6000	-0.00574413
797.4000	-0.00610799
797.2000	-0.00600351
797.0000	-0.00607901
796.8000	-0.00652329
796.6000	-0.00627608
796.4000	-0.00622625
796.2000	-0.00632609
796.0000	-0.00619043
795.8000	-0.00586405
795.6000	-0.00562866
795.4000	-0.00559119
795.2000	-0.00591959
795.0000	-0.00606309
794.8000	-0.00626533
794.6000	-0.00625963
794.4000	-0.00604966
794.2000	-0.00630738
794.0000	-0.00595356
793.8000	-0.00576248
793.6000	-0.00567874
793.4000	-0.00540023
793.2000	-0.00523564
793.0000	-0.00554005
792.8000	-0.00597714
792.6000	-0.00585241
792.4000	-0.00579812
792.2000	-0.00591697
792.0000	-0.00606428
791.8000	-0.00602775
791.6000	-0.00590301
791.4000	-0.00580275
791.2000	-0.00563205
791.0000	-0.00572162
790.8000	-0.00583964
790.6000	-0.00573926
790.4000	-0.00585669
790.2000	-0.00605976
790.0000	-0.00565729
789.8000	-0.00561512
789.6000	-0.00584184
789.4000	-0.00577531
789.2000	-0.00592749
789.0000	-0.00577169
788.8000	-0.00551219
788.6000	-0.00593277
788.4000	-0.00592725
788.2000	-0.0057572
788.0000	-0.00565723
787.8000	-0.00562581
787.6000	-0.00619762
787.4000	-0.00609546
787.2000	-0.00587165
787.0000	-0.00604889
786.8000	-0.0059023
786.6000	-0.00562486
786.4000	-0.00564227
786.2000	-0.00564767
786.0000	-0.00588205
785.8000	-0.00610591
785.6000	-0.00589814
785.4000	-0.00562071
785.2000	-0.00541751
785.0000	-0.00542274
784.8000	-0.00574425
784.6000	-0.00582954
784.4000	-0.00572613
784.2000	-0.00576842
784.0000	-0.00583417
783.8000	-0.00571342
783.6000	-0.00580578
783.4000	-0.00590385
783.2000	-0.00564114
783.0000	-0.00577923
782.8000	-0.00579313
782.6000	-0.0057509
782.4000	-0.00592279
782.2000	-0.0059285
782.0000	-0.00596835
781.8000	-0.00581422
781.6000	-0.00570576
781.4000	-0.00598623
781.2000	-0.00591151
781.0000	-0.00551777
780.8000	-0.00537463
780.6000	-0.00578054
780.4000	-0.0060562
780.2000	-0.00586013
780.0000	-0.0056428
779.8000	-0.00525976
779.6000	-0.00560663
779.4000	-0.0059535
779.2000	-0.005944
779.0000	-0.00583738
778.8000	-0.00579248
778.6000	-0.00604812
778.4000	-0.00578357
778.2000	-0.00554177
778.0000	-0.0057079
777.8000	-0.00590331
777.6000	-0.00560538
777.4000	-0.00545481
777.2000	-0.00543967
777.0000	-0.00538086
776.8000	-0.00556268
776.6000	-0.00573605
776.4000	-0.00579509
776.2000	-0.00544733
776.0000	-0.00554872
775.8000	-0.0057664
775.6000	-0.00544068
775.4000	-0.00524413
775.2000	-0.00560105
775.0000	-0.00542808
774.8000	-0.00526558
774.6000	-0.00561073
774.4000	-0.00565492
774.2000	-0.00554313
774.0000	-0.00546687
773.8000	-0.00546954
773.6000	-0.00533364
773.4000	-0.00514221
773.2000	-0.00504017
773.0000	-0.00512071
772.8000	-0.00501403
772.6000	-0.00493296
772.4000	-0.00508745
772.2000	-0.00529991
772.0000	-0.00525993
771.8000	-0.00529189
771.6000	-0.00553749
771.4000	-0.00560384
771.2000	-0.00543129
771.0000	-0.00527662
770.8000	-0.00531357
770.6000	-0.00544068
770.4000	-0.00542007
770.2000	-0.00491377
770.0000	-0.00491603
769.8000	-0.00514768
769.6000	-0.00526385
769.4000	-0.00519709
769.2000	-0.00499461
769.0000	-0.00486192
768.8000	-0.00491265
768.6000	-0.0053912
768.4000	-0.00526647
768.2000	-0.0048232
768.0000	-0.00501261
767.8000	-0.00555941
767.6000	-0.00560948
767.4000	-0.00522447
767.2000	-0.00522234
767.0000	-0.00552514
766.8000	-0.00540296
766.6000	-0.00517428
766.4000	-0.00500792
766.2000	-0.00508091
766.0000	-0.00558032
765.8000	-0.00511679
765.6000	-0.00456209
765.4000	-0.0049566
765.2000	-0.00518272
765.0000	-0.00505733
764.8000	-0.00519484
764.6000	-0.00513865
764.4000	-0.00496687
764.2000	-0.00532741
764.0000	-0.00510147
763.8000	-0.00496456
763.6000	-0.0049304
763.4000	-0.00481648
763.2000	-0.0050644
763.0000	-0.00504872
762.8000	-0.00512879
762.6000	-0.0051377
762.4000	-0.00498802
762.2000	-0.0050394
762.0000	-0.00507741
761.8000	-0.00509695
761.6000	-0.00519733
761.4000	-0.00507123
761.2000	-0.00478209
761.0000	-0.0047916
760.8000	-0.0049626
760.6000	-0.00513829
760.4000	-0.0050767
760.2000	-0.00482177
760.0000	-0.00491003
759.8000	-0.0050878
759.6000	-0.00479985
759.4000	-0.00470042
759.2000	-0.0050372
759.0000	-0.00500162
758.8000	-0.00500435
758.6000	-0.00489453
758.4000	-0.00481262
758.2000	-0.00516573
758.0000	-0.00537582
757.8000	-0.00530805
757.6000	-0.00503886
757.4000	-0.00497056
757.2000	-0.00507598
757.0000	-0.00511447
756.8000	-0.00500922
756.6000	-0.00503548
756.4000	-0.00504219
756.2000	-0.00485735
756.0000	-0.00465831
755.8000	-0.00469977
755.6000	-0.00470149
755.4000	-0.00468076
755.2000	-0.0047755
755.0000	-0.00476635
754.8000	-0.00484458
754.6000	-0.00496972
754.4000	-0.00493421
754.2000	-0.0047812
754.0000	-0.00471658
753.8000	-0.00478488
753.6000	-0.00480074
753.4000	-0.00462927
753.2000	-0.0046769
753.0000	-0.00470411
752.8000	-0.00449687
752.6000	-0.00474402
752.4000	-0.00488532
752.2000	-0.00465136
752.0000	-0.00463598
751.8000	-0.00441223
751.6000	-0.0043428
751.4000	-0.00450721
751.2000	-0.00490385
751.0000	-0.00495779
750.8000	-0.00483579
750.6000	-0.00479427
750.4000	-0.0045514
750.2000	-0.00447038
750.0000	-0.00446854
749.8000	-0.00443195
749.6000	-0.00418148
749.4000	-0.00421973
749.2000	-0.00436739
749.0000	-0.00439109
748.8000	-0.00443878
748.6000	-0.00442197
748.4000	-0.00440624
748.2000	-0.00421682
748.0000	-0.00424456
747.8000	-0.00465392
747.6000	-0.00466378
747.4000	-0.00437749
747.2000	-0.00428245
747.0000	-0.00435569
746.8000	-0.0043213
746.6000	-0.00420773
746.4000	-0.0044389
746.2000	-0.00445357
746.0000	-0.00439186
745.8000	-0.00437755
745.6000	-0.00436448
745.4000	-0.00437683
745.2000	-0.00433021
745.0000	-0.00441301
744.8000	-0.00450228
744.6000	-0.00447365
744.4000	-0.00426333
744.2000	-0.00430217
744.0000	-0.00420696
743.8000	-0.00421943
743.6000	-0.00422335
743.4000	-0.00404921
743.2000	-0.00437238
743.0000	-0.0042306
742.8000	-0.00399159
742.6000	-0.00394752
742.4000	-0.00413575
742.2000	-0.00433567
742.0000	-0.00419775
741.8000	-0.00438723
741.6000	-0.00443855
741.4000	-0.0041459
741.2000	-0.00396492
741.0000	-0.00378644
740.8000	-0.00376981
740.6000	-0.00405081
740.4000	-0.00397947
740.2000	-0.00408562
740.0000	-0.00391444
739.8000	-0.00403946
739.6000	-0.0039765
739.4000	-0.00390832
739.2000	-0.00404226
739.0000	-0.00411609
738.8000	-0.00414519
738.6000	-0.00410539
738.4000	-0.00409043
738.2000	-0.00414994
738.0000	-0.00386252
737.8000	-0.00375044
737.6000	-0.00396415
737.4000	-0.00410379
737.2000	-0.00417756
737.0000	-0.00403157
736.8000	-0.00379018
736.6000	-0.00372544
736.4000	-0.00373429
736.2000	-0.00385082
736.0000	-0.00397074
735.8000	-0.00368327
735.6000	-0.00353555
735.4000	-0.00370732
735.2000	-0.00372627
735.0000	-0.00344265
734.8000	-0.0034379
734.6000	-0.00355592
734.4000	-0.00353923
734.2000	-0.00353757
734.0000	-0.00361282
733.8000	-0.0039332
733.6000	-0.00392911
733.4000	-0.0035302
733.2000	-0.00337714
733.0000	-0.00350615
732.8000	-0.00339187
732.6000	-0.00334441
732.4000	-0.00336383
732.2000	-0.00347508
732.0000	-0.00367584
731.8000	-0.00358657
731.6000	-0.00358954
731.4000	-0.00353311
731.2000	-0.00367198
731.0000	-0.00365802
730.8000	-0.00339021
730.6000	-0.00345661
730.4000	-0.00341985
730.2000	-0.00351434
730.0000	-0.00364894
729.8000	-0.00349314
729.6000	-0.00347425
729.4000	-0.00365196
729.2000	-0.00353579
729.0000	-0.00339009
728.8000	-0.00344022
728.6000	-0.00341907
728.4000	-0.00324296
728.2000	-0.0032201
728.0000	-0.0033677
727.8000	-0.00332582
727.6000	-0.00317757
727.4000	-0.00319931
727.2000	-0.00336354
727.0000	-0.00346772
726.8000	-0.00345222
726.6000	-0.00318131
726.4000	-0.00313938
726.2000	-0.00338344
726.0000	-0.00350045
725.8000	-0.0033927
725.6000	-0.00328864
725.4000	-0.00324528
725.2000	-0.00312215
725.0000	-0.00331323
724.8000	-0.00346528
724.6000	-0.00321891
724.4000	-0.00296463
724.2000	-0.00286497
724.0000	-0.00317501
723.8000	-0.00326144
723.6000	-0.00313326
723.4000	-0.00314431
723.2000	-0.00297925
723.0000	-0.00300265
722.8000	-0.00288296
722.6000	-0.00293488
722.4000	-0.00309928
722.2000	-0.00288291
722.0000	-0.00268428
721.8000	-0.00272705
721.6000	-0.00293678
721.4000	-0.0030058
721.2000	-0.0029211
721.0000	-0.00282868
720.8000	-0.00287501
720.6000	-0.00300793
720.4000	-0.00291931
720.2000	-0.00274386
720.0000	-0.00277415
719.8000	-0.0028326
719.6000	-0.00287322
719.4000	-0.0027533
719.2000	-0.00269581
719.0000	-0.00282
718.8000	-0.0027767
718.6000	-0.00258955
718.4000	-0.00256959
718.2000	-0.00270359
718.0000	-0.00253265
717.8000	-0.00253134
717.6000	-0.00279043
717.4000	-0.00273388
717.2000	-0.00257494
717.0000	-0.00239069
716.8000	-0.0023244
716.6000	-0.00241451
716.4000	-0.00254447
716.2000	-0.00247604
716.0000	-0.00241492
715.8000	-0.00244925
715.6000	-0.00219385
715.4000	-0.00222486
715.2000	-0.00237406
715.0000	-0.00231627
714.8000	-0.00229875
714.6000	-0.0023263
714.4000	-0.00239538
714.2000	-0.00239705
714.0000	-0.00229358
713.8000	-0.00213986
713.6000	-0.00200889
713.4000	-0.00227891
713.2000	-0.00237952
713.0000	-0.00228372
712.8000	-0.00230136
712.6000	-0.00230961
712.4000	-0.0022934
712.2000	-0.00224012
712.0000	-0.00218245
711.8000	-0.00194219
711.6000	-0.00204893
