Bruker BioSpin GmbH: the minispec
DataType=1
DataLimits=-81.9672,81.9672,8192
DataUnit=Freq/kHz,
c:\users\student\documents\nmr-apps\fluor_ft_pcii.app
07.01.2025 16:56:36

43.8992
9.99388
83.7138
63.2263
54.6926
44.1724
88.2431
101.873
181.668
75.1778
97.6495
104.397
36.4161
129.934
108.028
25.4391
103.851
53.5275
73.8981
122.004
31.2893
45.3058
54.5132
60.369
76.4408
133.583
36.541
25.3509
74.7629
91.4788
158.34
179.907
128.335
87.6649
156.628
112.598
59.7717
57.3836
147.061
51.8386
132.32
148.06
53.2093
109.161
109.509
99.4886
95.5634
21.6667
31.5228
66.5814
96.9232
97.4863
238.613
100.812
55.0042
43.9834
42.7431
85.6868
138.807
66.8999
87.4193
66.4874
116.019
45.8647
89.6854
113.556
58.9053
13.8183
69.2635
87.5805
112.15
142.007
176.534
107.842
137.205
29.8914
63.9673
35.2001
70.363
118.997
72.4339
62.2861
64.6154
91.6899
76.7634
54.4567
62.8485
88.7538
57.2413
116.202
121.925
75.0017
119.243
93.8802
123.074
158.069
91.237
58.0121
81.4779
172.613
125.4
4.98539
78.909
86.7658
54.5475
120.078
82.8766
129.288
131.798
112.628
77.2821
63.3247
19.1212
53.0836
136.174
124.723
71.8843
84.8957
41.5315
152.395
53.1743
169.642
46.2845
201.148
90.019
102.673
22.7428
37.9875
101.776
107.896
83.2402
41.1991
52.3889
94.5473
39.3693
71.1813
144.264
154.449
9.4627
89.5114
106.108
29.9445
120.844
47.1749
144.646
58.3197
32.0233
121.561
62.2985
108.2
148.768
60.7323
70.6468
152.864
95.1352
58.6277
42.0217
142.772
39.4576
87.4736
92.1417
119.67
72.7257
102.332
99.8497
15.4907
125.823
46.6509
62.158
77.3762
63.0999
38.7981
105.965
99.1464
82.1907
50.6491
95.6579
82.0457
10.8019
73.1585
129.699
53.1726
171.92
9.14712
247.726
230.432
71.6854
54.4142
108.633
92.2149
6.80982
125.226
49.0291
80.3896
67.6682
68.373
98.2295
96.6351
35.532
25.5704
156.064
68.079
70.5185
114.494
95.6818
86.3088
153.513
59.9286
80.7712
60.0895
27.4517
64.7131
51.5301
52.4641
108.054
119.147
68.086
46.7445
105.53
103.168
82.0793
147.007
52.0286
67.8923
55.5641
120.853
72.4128
62.2069
107.268
67.1559
103.744
226.525
80.5346
109.188
60.3119
71.7367
110.934
66.9792
79.9513
69.1927
74.1443
76.2591
125.569
196.305
81.7122
27.9928
25.9772
53.7529
58.679
111.808
209.574
110.61
209.5
70.4295
215.558
43.0089
90.0969
53.9753
74.3919
52.2254
66.7082
143.244
17.1054
74.1649
100.734
174.433
107.6
101.265
86.4036
86.2
69.4944
100.193
33.4576
98.4563
5.4705
73.9259
44.6481
13.7086
32.2279
66.2705
82.526
67.0485
96.7104
113.683
21.4122
72.002
54.9035
49.9716
133.287
103.148
68.196
181.448
53.5635
89.5183
27.7854
36.5554
89.9866
98.7981
126.713
78.8691
88.4272
130.903
97.4982
21.7928
46.6226
119.154
74.845
67.2829
115.99
97.3967
43.3479
179.54
98.2522
30.4956
85.8115
76.1986
24.0297
53.0048
85.7887
118.954
61.5789
13.4429
91.6818
42.3591
79.5986
75.7987
53.8791
55.528
59.4027
120.086
51.6963
48.3519
65.9066
75.7513
44.3208
73.959
68.6368
113.983
93.4464
29.1901
55.2697
110.954
71.4329
32.1905
169.081
80.7039
68.0866
66.557
30.9147
39.1227
140.744
25.415
47.6816
71.3823
33.5476
71.8798
118.297
32.0246
102.851
36.042
113.002
87.4916
92.9799
65.266
102.222
89.6088
114.46
156.373
170.846
90.9843
40.0978
120.544
108.398
159.221
79.6071
108.413
36.898
87.0347
167.57
80.9177
79.6651
89.313
84.4273
77.6228
62.086
71.3268
29.3317
134.711
111.794
22.8458
73.2108
106.509
157.037
102.699
33.1511
88.2409
19.458
109.659
64.7537
75.2671
64.4916
37.2096
71.4177
169.581
58.9394
68.4368
74.2148
130.076
118.213
124.892
20.6255
130.533
97.4817
72.144
43.9831
69.8994
27.329
96.4494
102.812
144.656
18.8709
147.665
29.4975
23.2965
42.9702
17.4233
92.5587
130.465
53.3349
68.4217
89.837
70.8319
58.4788
77.6677
42.5922
73.3307
122.969
24.429
92.7158
151.429
87.3887
116.065
62.1729
96.8886
73.2317
24.6751
105.932
29.0399
113.012
242.204
64.2703
49.2359
116.373
42.8482
202.713
33.2169
38.742
31.906
133.8
71.9613
96.5184
76.3342
28.3381
88.2127
90.1653
128.729
107.115
85.0277
89.383
34.6104
118.029
83.3897
30.7798
101.495
77.6353
93.0435
91.9528
50.918
128.064
60.7472
102.411
56.8284
99.7942
85.4324
53.8989
183.286
66.1002
77.6684
80.3346
86.9395
46.1155
107.971
126.157
68.8427
125.412
143.273
108.839
25.6811
76.6823
9.80054
100.725
90.8957
198.504
120.719
29.2335
95.1491
103.293
82.5422
71.8148
43.5864
68.1025
154.118
42.4109
41.6312
57.0908
97.7781
25.4873
78.9834
38.4871
120.114
60.8721
147.629
37.0425
79.2047
124.454
94.9826
131.896
127.928
12.8917
139.33
47.6305
55.0441
90.623
98.8854
77.9932
8.82357
60.3996
90.933
135.372
146.633
68.74
38.2767
137.017
123.07
68.7275
76.18
121.825
181.949
62.0432
87.619
122.756
100.91
119.04
77.8088
131.572
51.4669
111.443
90.2161
88.1516
98.7381
107.755
110.624
183.739
49.3252
102.905
87.301
31.2154
70.1877
95.879
73.5314
30.7371
94.6185
89.7301
149.075
79.3884
61.9555
96.0861
23.7867
91.9284
120.248
74.724
96.8274
92.7918
77.0804
94.5287
72.306
84.369
113.385
76.5251
60.5937
89.8229
10.1516
36.1519
71.8764
37.9718
87.9712
97.2367
105.648
46.5758
75.3151
58.7936
161.05
61.8634
199.724
40.0684
43.1815
57.443
33.1177
8.59298
145.414
35.9468
18.7445
102.799
32.9525
87.4921
82.9142
167.439
91.3043
63.4718
52.9024
91.3312
47.8661
33.5705
110.282
139.053
56.0526
126.434
81.2015
65.2062
170.85
69.9819
124.166
101.342
156.205
32.0144
4.39533
59.0286
50.4169
107.894
36.7394
54.869
65.7371
45.6746
105.431
108.282
96.1373
24.347
135.151
58.2969
197.67
152.248
64.3427
85.6959
149.94
12.9693
22.725
70.3016
96.4707
53.5005
94.272
72.7024
123.624
137.683
22.7588
128.36
38.0232
83.1824
72.3284
47.9083
114.63
94.913
47.8265
24.7605
70.894
95.5343
101.262
28.8741
78.7565
25.5922
44.2066
125.438
91.8673
52.7362
77.6018
28.3838
117.054
127.527
128.756
76.4622
51.7065
173.265
96.4528
118.579
63.4855
55.1859
135.309
61.4544
131.869
44.0839
101.938
45.105
134.14
152.08
107.725
149.019
63.1544
103.098
24.8154
105.242
115.916
165.395
58.5567
75.2592
144.679
54.8949
116.259
91.9354
51.3939
101.631
64.7656
29.7835
84.7838
46.6827
70.0968
120.508
160.197
69.0381
177.821
110.213
93.4595
41.0841
77.7977
115.75
94.0558
69.8671
79.1471
39.6631
120.73
26.1773
18.1753
55.9775
12.0895
21.7349
79.0921
69.9602
40.5451
84.7318
95.6733
41.6961
18.5603
106.26
111.259
18.3389
72.1917
66.1074
63.096
176.43
66.4932
122.917
49.4751
157.478
101.063
82.5634
118.291
178.189
80.9659
39.8617
151.618
13.7793
27.6544
132.883
172.919
163.19
33.4422
99.7049
113.29
70.6574
91.6348
135.581
113.015
141.51
146.639
25.1796
107.523
18.2877
208.504
112.809
99.2625
62.5189
33.2928
116.188
46.2602
59.0334
53.0941
64.6438
80.5346
65.5354
45.1913
43.443
59.6137
94.932
86.3956
114.62
85.1189
102.436
109.38
139.543
72.0567
57.0986
5.0906
89.6445
119.567
62.9912
40.265
83.3881
61.0408
74.8741
185.432
133.955
45.1959
172.993
149
29.7379
111.037
117.766
77.5091
37.0405
98.2334
32.5478
143.673
94.7484
113.684
114.985
43.9064
39.1833
127.881
97.3891
64.7871
48.3049
50.6347
50.9363
77.7873
113.564
120.438
26.1737
35.3987
123.308
104.984
19.2736
159.849
190.852
53.0185
100.943
73.6316
107.239
152.005
106.358
176.195
61.6668
23.5737
92.781
76.2239
81.7321
20.592
106.177
114.013
113.395
52.1771
7.93741
168.372
36.4421
89.3174
93.4197
156.395
41.8553
70.528
100.922
133.503
35.2519
41.0201
185.85
93.5758
35.154
154.072
112.919
70.2737
167.042
76.3664
50.8205
76.3585
48.4132
82.556
107.175
121.489
58.4818
125.264
79.0313
132.533
68.3588
69.4184
139.746
87.8936
68.2836
22.1817
42.492
115.311
53.499
19.4248
149.54
112.942
34.0735
69.2043
97.2062
113.892
145.419
86.4346
46.8306
51.3467
80.5103
100.501
29.1937
64.5206
46.6159
59.3396
79.2835
55.6156
54.2111
159.486
92.5419
35.5163
119.921
91.9205
57.0413
115.395
76.6237
43.769
45.3064
114.102
87.2212
101.684
69.2819
130.571
186.875
93.5551
126.01
106.137
37.1331
63.6728
138.107
59.6896
99.8445
103.373
117.472
80.7564
86.8984
181.895
87.8462
31.1528
158.346
78.1523
58.0673
37.5205
106.46
40.5585
70.7637
97.9607
49.9724
71.1088
58.1743
111.054
79.8257
72.0512
45.5531
29.0341
103.542
63.0717
34.7047
158.624
123.361
56.4265
83.2325
39.9274
82.0533
99.5415
123.605
113.699
82.7365
38.3374
98.9556
97.173
98.6453
69.5956
96.8637
195.802
183.126
18.1637
46.2806
199.677
139.51
13.6517
74.9894
139.483
122.143
17.5949
97.6004
128.08
36.7719
49.1261
52.9709
126.831
35.078
45.6723
82.3031
55.7999
100.646
72.8875
111.866
91.6314
84.8177
74.1314
94.8857
158.947
47.782
63.5349
88.2362
137.105
94.7415
97.6389
22.3713
63.9714
40.2663
131.579
59.9124
63.3394
73.1049
54.8187
27.5267
103.194
50.6234
65.7975
129.77
89.972
197.759
102.736
27.2303
76.1601
134.37
135.521
96.8756
75.6354
119.63
43.4643
127.04
63.3485
170.944
53.4729
69.6023
115.325
117.968
93.5951
158.171
56.7538
98.4071
84.7473
149.803
122.894
77.3102
27.7615
34.4232
71.3
46.5007
24.7398
36.8019
44.0903
97.5385
65.7318
109.778
193.216
11.7562
113.92
106.882
95.1525
130.183
104.353
79.399
87.7863
187.581
15.5093
105.846
84.9618
193.784
58.0172
61.5009
35.9301
106.363
72.6826
55.3505
149.257
86.2023
109.832
59.5577
134.45
39.8971
36.3802
86.9069
117.941
44.2093
181.147
150.575
19.0358
29.8197
27.501
19.6219
53.4354
53.7188
120.221
27.9804
158.995
82.4288
72.4459
61.5196
78.3957
36.7708
133.714
134.69
81.5597
36.0515
59.7569
69.1713
35.2687
42.308
61.6215
113.836
44.9829
88.305
118.543
56.942
32.3524
69.2721
50.5862
43.2618
48.4531
79.9145
46.9293
95.7743
83.8522
120.623
85.589
119.575
27.8463
144.428
103.203
64.6515
88.9498
36.3715
44.4896
149.028
156.806
91.7078
121.158
71.5423
57.085
35.8796
14.4734
133.907
61.8909
57.3357
87.0097
32.3532
91.1644
142.37
100.258
114.61
69.8532
70.5667
77.6315
47.3749
87.7121
111.048
58.5697
133.177
112.936
74.4982
46.1026
108.706
95.6281
116.339
72.9698
45.6335
88.9453
51.9696
124.742
62.3699
99.8771
125.39
115.084
93.5823
52.1367
116.576
37.2183
65.8722
49.7055
39.0482
164.333
78.1467
96.1583
138.731
167.581
54.9462
91.6538
95.9753
90.5922
34.076
15.6408
87.7166
43.7852
145.691
105.993
40.8276
142.944
77.5669
69.3659
38.7988
62.4635
64.2495
98.8017
30.3611
138.596
68.9611
83.4195
53.0282
35.2922
119.542
36.7355
161.616
128.999
75.0792
110.216
77.4349
47.9312
73.176
35.0552
91.217
26.682
63.3943
69.4365
131.299
87.7705
116.293
114.028
57.1065
57.0656
27.3098
110.653
39.6848
15.3112
49.6533
125.839
161.635
18.5181
85.9013
88.1981
54.068
36.6703
187.996
147.805
129.272
11.3005
32.9674
165.61
128.321
17.67
24.1458
156.161
73.5824
40.8231
78.1086
119.635
64.0554
107.081
55.4737
160.745
40.1192
87.5829
109.047
92.6072
57.3253
61.8944
40.2546
51.7362
119.905
94.5011
104.663
63.2421
38.3785
59.85
129.005
22.2742
102.338
38.4351
105.038
120.884
176.851
15.9947
61.3919
184.307
101.194
57.4895
73.8604
34.1819
69.719
51.2064
50.1482
23.5836
114.705
96.629
82.3541
32.4029
79.5291
132.987
84.1741
69.9915
20.8137
34.0179
24.4031
130.57
99.4281
100.388
112.129
17.9289
126.505
27.5324
46.4495
48.3754
68.8277
64.7604
133.567
84.1971
46.6878
110.858
23.5929
33.0968
68.4072
66.0126
24.1676
184.127
72.7015
99.4404
71.37
97.2443
114.503
132.575
114.807
94.4708
129.792
28.5929
84.1287
19.1714
66.7283
101.048
87.5305
27.9637
74.7253
158.563
48.2811
17.874
12.224
74.287
155.354
31.1817
97.5684
36.6454
24.4593
124.131
46.6245
53.372
22.827
17.0532
135.159
16.2349
53.5673
13.1995
75.2564
82.292
116.286
17.4442
59.3637
136.219
16.3511
114.048
21.0051
44.3565
103.392
153.773
92.1572
105.03
57.305
120.137
125.289
132.803
47.49
75.2726
100.09
84.0942
219.095
55.2562
76.6664
114.477
91.3089
72.6255
115.252
108.381
90.0544
38.0964
67.1249
111.493
35.814
72.0759
127.526
56.7958
107.633
31.4395
31.9011
8.98269
55.3452
74.4485
77.1556
87.0391
57.8434
96.6233
102.571
60.5818
50.2938
36.8827
164.32
58.1998
60.2867
50.0872
172.57
145.775
58.7378
121.263
139.587
34.5017
159.592
127.416
92.8716
109.959
74.2678
75.7336
188.143
33.528
99.9145
85.6008
82.6404
90.7095
38.848
48.9818
81.7774
86.4892
63.0791
137.473
75.6796
129.094
99.3396
98.0601
45.5215
124.893
52.5475
82.6569
84.2255
36.8537
32.7717
110.412
57.9362
107.152
90.2718
52.3437
43.1286
74.5071
42.7197
91.3115
139.843
85.9618
44.3069
183.828
89.9187
224.544
114.646
80.8016
28.9264
83.0488
141.956
47.6891
90.1379
100.141
72.4777
17.4778
41.7091
105.355
241.863
246.754
42.3966
124.744
99.616
89.5356
26.4408
84.2846
140.62
83.7785
58.1255
55.1141
72.8586
136.731
17.9044
129.229
55.8944
82.9161
3.23908
42.7129
84.4649
60.1221
28.2414
90.5519
34.5125
99.6913
124.301
189.783
155.398
137.14
51.0137
79.1971
118.355
159.352
86.4002
109.445
117.411
83.8763
98.3328
108.274
93.7023
44.9705
74.7143
32.9885
106.046
104.377
50.8998
45.8947
76.4049
11.6008
7.83218
20.1935
59.3588
77.7453
91.2923
36.8222
104.533
14.0633
58.9891
58.8298
104.786
18.7966
67.5639
68.6438
131.574
155.002
146.549
101.722
42.878
93.2449
79.2907
80.6527
44.5576
90.2509
7.95957
86.4031
41.4169
38.8317
98.8434
83.6577
70.5865
146.237
154.619
129.524
79.9858
133.808
96.6797
79.4322
35.0264
107.24
87.0097
50.0022
53.0785
36.7049
132.868
56.8838
90.409
69.9843
92.6865
79.9927
87.1728
68.7686
164.321
3.88521
76.3047
86.6031
55.1932
54.802
137.219
27.0647
53.366
178.574
35.6182
93.5358
208.375
63.5592
105.279
30.6984
75.0785
34.0602
40.2387
45.421
93.3852
125.564
149.588
110.898
111.801
144.748
133.057
60.8549
48.9427
69.6401
106.226
30.5978
145.318
82.2427
69.1147
187.293
32.7745
78.1087
197.021
14.1711
98.2194
173.234
87.9564
104.024
65.3397
17.8396
66.1488
31.3958
81.6446
64.5549
56.0588
98.6121
38.9918
166.493
123.299
133.301
50.5011
125.949
120.173
112.87
92.117
44.9236
77.6617
55.3293
85.0299
63.9368
106.103
156.549
219.19
10.9751
70.3687
137.97
102.486
85.9575
109.753
23.1427
118.807
79.026
126.749
10.1276
37.6834
173.097
87.6433
130.211
156.184
43.8723
185.491
49.8556
37.7212
58.3122
90.888
121.015
132.666
54.9683
89.2925
26.6785
42.4682
15.6805
104.829
19.329
22.4916
136.133
176.606
112.271
43.7457
168.889
56.8677
31.053
26.0765
107.178
92.1555
135.832
26.5874
149.499
145.176
40.7367
130.757
159.487
110.935
54.0158
111.632
59.4047
66.9904
76.1642
48.8957
96.6642
164.19
144.136
80.8755
17.4171
57.4614
46.5366
44.9576
120.201
60.9994
54.8868
54.0041
114.951
33.3148
70.1494
50.5123
106.717
54.0088
92.3575
73.4804
89.9616
97.8861
84.683
13.8431
111.118
76.3446
86.436
22.1996
129.021
30.5564
135.998
89.4858
67.8403
80.3335
143.601
151.064
28.5875
169.985
216.665
92.8702
48.1708
52.0234
147.389
47.5663
97.4656
104.977
59.2656
43.7775
21.7369
54.5416
83.9238
90.6147
104.445
15.8953
84.5126
142.768
66.909
25.5687
54.1595
60.2381
127.741
101.239
79.3936
55.2082
95.9856
74.905
115.203
49.8053
72.5512
122.045
88.334
123.398
87.2034
40.2784
122.246
149.699
102.055
71.5446
38.6007
62.5914
141.163
75.3821
48.2503
93.4775
65.1226
118.941
94.8488
26.9829
46.5085
15.4591
144.669
117.011
101.525
93.4902
43.8385
30.5937
46.1343
89.8814
74.7031
64.5733
104.077
6.31334
107.562
114.771
75.1836
188.585
75.9263
89.6599
42.4914
67.4051
194.135
96.1823
37.741
47.7462
49.3951
147.054
63.5386
76.7932
134.126
53.922
41.4492
189.359
18.5228
107.433
17.8534
59.5536
78.364
105.168
157.74
80.3173
27.9236
46.8178
75.9571
81.1487
46.0837
174.596
73.6425
54.7894
103.775
120.838
138.993
125.023
113.091
100.983
215.722
51.7852
94.4442
93.9069
36.0706
66.635
86.0203
27.8186
28.6537
74.9077
112.073
103.547
30.6759
64.6354
29.9474
88.8545
83.1928
65.6677
53.4332
104.662
52.3382
67.2587
70.7969
136.576
65.976
74.3509
132.299
172.794
94.0169
58.9113
23.8389
132.558
59.1962
119.109
64.6276
190.729
149.916
107.082
58.552
114.375
128.095
170.946
84.0116
109.293
97.7068
109.883
53.931
154.236
35.2752
95.9267
55.4542
150.818
76.1853
68.3754
109.609
33.1295
15.6001
78.3889
40.3995
57.6645
49.3814
186.923
21.2074
58.6033
133.886
24.3926
25.6557
65.1794
58.5782
53.9067
88.9773
125.539
99.1603
160.234
156.837
90.0132
32.6821
33.1101
30.0346
170.603
160.807
98.3837
41.3507
29.1921
37.8783
10.622
130.274
43.0656
98.665
89.6114
93.4486
72.6212
90.1467
63.1764
61.4078
181.753
61.9056
104.047
38.5961
36.8053
66.3631
57.1674
11.7394
22.7532
16.7255
77.3351
58.2848
88.7792
121.058
86.376
75.5781
195.033
91.7448
88.259
89.2113
24.9436
166.445
80.6389
100.609
64.3168
52.8021
150.217
141.848
49.9475
106.666
123.894
148.867
125.386
49.1639
155.092
70.4775
20.3575
110.329
46.1247
151.663
93.5793
158.572
82.4598
45.266
56.2046
97.9357
72.4297
137.519
133.972
5.73301
133.478
105.798
75.8869
96.3498
126.079
31.0725
124.267
41.3335
81.8735
163.706
44.9554
79.0512
215.516
40.628
67.4329
99.5575
52.2379
105.657
92.0539
108.752
48.2411
140.661
62.2876
65.7585
82.2366
30.2238
118.905
103.394
88.6839
30.4741
110.278
82.5291
106.345
127.235
108.647
139.244
92.9294
87.58
53.8413
151.212
71.8863
90.2532
104.726
54.1563
149.102
36.2517
99.1808
4.75477
49.9275
95.5576
116.486
117.526
49.8467
31.0901
143.22
75.2304
88.5418
35.0913
51.9674
92.9322
76.059
36.9637
32.9808
38.9406
101.242
32.4965
15.3923
57.3882
67.3959
107.207
83.9791
55.3221
83.5919
64.3327
64.8458
75.5999
86.9723
98.5618
60.5132
55.4463
62.1058
59.1713
147.961
45.0095
22.8971
110.954
43.4613
88.578
130.76
55.4237
136.735
81.9356
93.2748
21.4194
36.7778
64.2909
36.0288
70.2055
118.292
85.268
38.6966
105.174
104.632
17.5295
51.7083
70.0836
50.6634
109.135
85.1405
79.2903
74.1001
110.331
131.882
159.905
131.53
50.5074
153.197
28.4846
129.025
69.7539
185.249
56.8444
50.2912
91.6155
30.4979
105.726
82.6522
63.7731
37.363
149.614
99.8694
133.085
83.6239
120
34.023
42.9071
83.0822
13.4212
59.4255
189.447
56.2635
108.877
51.4756
60.9523
88.58
77.5435
85.546
12.7593
91.3145
107.71
60.0384
48.8647
89.7482
147.336
122.76
55.212
93.5403
125.756
39.712
98.2962
61.668
20.6294
66.5641
147.663
69.5947
221.68
76.9494
77.1694
38.4386
48.7262
49.4623
52.9434
80.779
95.5867
74.797
23.1832
121.484
70.431
99.7035
4.3895
123.164
49.0998
27.3364
20.674
79.3712
131.921
181.863
68.5307
51.8784
57.9353
41.4358
35.2349
43.4235
19.0255
128.39
12.6662
70.3552
114.46
36.8052
94.9849
180.02
151.901
71.6684
11.8558
155.938
49.6731
93.2583
51.0428
119.333
101.254
116.806
39.9074
97.399
174.165
62.2012
25.1523
43.5567
66.165
121.871
112.699
23.8538
63.0273
17.0883
73.236
70.8481
54.8613
78.9648
101.404
46.0372
46.466
70.1178
130.524
52.7526
117.364
39.4821
105.582
31.2715
100.282
90.8169
114.046
84.0551
191.272
50.1679
93.2441
93.5474
29.6321
68.5928
99.0129
59.0245
99.1525
49.2458
18.0016
37.7307
99.8713
100.657
96.1061
96.489
91.2855
65.7761
71.9571
104.817
46.0289
108.471
56.0443
4.15776
17.8389
88.581
43.4975
50.65
44.442
12.1936
152.63
41.4071
110.243
73.3238
129.627
75.5682
79.8572
119.886
63.7875
58.2706
71.0058
163.304
111.757
133.624
66.2568
169.935
125.276
70.5206
159.489
53.8875
148.95
22.7528
73.5297
17.9607
68.7106
77.441
37.3391
76.2312
69.4262
89.1511
35.3164
96.603
70.0562
112.969
104.559
77.429
73.8024
116.27
77.3719
22.2712
58.2379
84.7784
122.498
195.989
85.0617
82.5538
87.3013
28.197
37.1749
124.67
50.2227
53.917
145.739
49.9968
104.159
117.704
208.048
77.5808
18.766
98.7577
54.7299
41.2815
92.9117
110.357
159.006
40.8477
193.334
36.847
77.6411
20.9055
51.8072
16.2298
44.6897
53.7561
33.4207
39.2449
94.3295
107.259
2.10681
137.671
111.656
19.2955
128.623
94.3057
54.7455
136.751
7.77646
97.6274
35.7598
44.3362
12.3453
26.5447
63.9506
34.9913
33.3148
54.1515
114.843
62.4246
48.7737
95.1455
87.2621
56.9853
108.216
94.9121
40.1618
3.9081
81.7584
77.3563
19.7316
38.4129
89.0382
100.332
56.3431
161.324
44.9946
13.0094
56.089
29.2421
108.225
62.0293
66.5462
107.88
97.9807
185.332
74.0161
47.4601
64.5964
113.197
23.402
70.041
68.1278
114.161
52.0064
29.9375
128.013
59.4055
163.96
61.2606
63.9837
82.8168
49.3211
38.9417
46.5954
73.0763
31.1389
173.616
54.4319
103.361
93.0972
12.128
52.7477
56.9338
112.876
116.048
17.7501
28.7084
8.94831
43.281
106.01
93.8589
56.0006
72.8257
126.767
144.695
157.026
81.4494
60.0734
163.647
53.489
73.1456
39.8414
30.2176
87.8438
112.135
66.9944
104.512
47.4206
72.2789
85.7348
99.8008
91.1995
108.935
89.2629
90.0224
71.1436
40.2455
163.398
84.973
86.2153
123.795
116.936
48.7016
52.0668
93.5215
54.0391
18.7471
59.0254
61.3176
224.822
91.0389
74.6509
133.425
11.8939
13.1517
77.0641
136.323
164.434
110.442
123.41
126.028
151.685
53.7793
84.4149
244.807
57.4855
80.9593
86.0192
70.1949
50.0971
117.033
78.2085
146.24
33.1487
93.8662
44.0806
91.2085
