Bruker BioSpin GmbH: the minispec
DataType=1
DataLimits=-81.9672,81.9672,8192
DataUnit=Freq/kHz,
c:\users\student\documents\nmr-apps\fluor_ft_pcii.app
07.01.2025 16:49:18

146.584
65.3772
114.898
58.287
96.6917
93.8959
73.2077
13.3184
31.3288
107.601
48.5943
113.734
21.3132
30.1006
109.32
5.56693
92.802
38.3623
49.2127
143.803
57.8857
107.875
104.351
109.865
143.815
25.2035
18.5257
27.4972
82.0968
67.4513
55.1997
34.9962
96.9414
69.0673
155.717
130.623
59.0838
104.674
96.5628
64.2926
135.904
161.816
64.1094
159.674
63.0977
116.116
41.7239
112.347
61.9298
113.208
83.4437
81.0737
100.363
51.0051
53.2665
33.788
112.149
111.75
89.1676
96.4504
80.608
56.3039
54.523
97.574
37.8843
32.2427
49.5176
78.8151
55.1671
68.4758
79.4674
47.213
80.2922
193.896
28.6774
75.425
21.3665
77.6327
43.4794
72.8281
30.5933
79.9809
66.7965
36.7281
33.7792
51.5378
46.6516
89.4826
105.849
44.7386
52.3498
86.2145
129.414
106.318
132.414
92.0088
87.7652
88.9086
123.968
66.6789
3.3939
135.433
124.696
88.56
78.7205
53.4642
67.7355
111.199
74.2211
133.933
119.993
13.1217
45.1646
61.4075
75.3328
19.9968
67.8202
67.7637
98.9866
57.9712
110.989
72.1844
101.167
31.5642
52.12
101.239
50.2346
92.5023
74.7256
120.958
36.1218
126.385
78.1607
113.831
92.39
45.2486
54.2827
96.915
50.1864
118.554
10.3626
106.61
96.4312
43.5424
103.448
29.7025
136.712
73.4671
165.497
35.1336
79.3588
69.3155
123.294
36.8494
151.69
43.3526
167.268
92.2705
40.6521
44.1258
186.062
77.2025
47.4013
152.296
114.933
122.668
75.6189
51.9833
105.467
74.4477
29.5227
233.131
50.7443
77.1509
128.891
38.0694
39.874
51.4055
91.8363
75.4965
73.0783
49.4459
125.977
74.9196
75.1927
91.3176
25.8152
56.1883
69.3266
49.8506
85.4662
83.9523
110.521
152.236
103.562
47.6027
22.8804
62.7148
97.8012
47.3597
101.603
55.9707
99.3109
8.52501
24.2097
45.5213
104.363
88.1478
25.1626
88.7346
102.38
2.53473
94.0423
23.103
94.9067
87.2728
78.7176
59.3893
98.9943
174.954
53.6314
31.5936
194.802
51.4291
108.05
137.983
82.3368
149.291
40.0477
101.876
174.427
95.0257
138.791
71.6571
130.962
120.427
8.74105
29.1968
53.2848
44.3981
154.844
211.455
69.1563
26.4523
51.4318
58.5259
73.6759
72.6116
93.4527
62.2209
46.3756
99.6453
97.7041
146.586
70.4099
57.4557
84.5259
74.0225
78.7491
79.3197
110.123
112.675
113.579
74.8647
79.7708
52.1741
93.3625
55.6226
122.197
58.0603
131.598
48.8459
113.179
154.478
175.688
73.0625
15.9256
72.1308
152.095
119.723
29.3759
177.699
90.3625
97.2826
74.3096
91.2466
84.5796
132.835
111.301
68.2544
109.392
35.629
157.656
20.5477
48.1942
109.821
42.6632
20.4729
22.9451
45.9461
41.3779
58.0346
53.9234
42.0745
94.2111
52.1706
49.0121
28.7125
71.1314
53.1499
66.6367
53.6822
170.652
54.5019
128.049
181.742
90.9195
98.2326
21.6753
37.4365
69.9544
59.8533
95.782
165.136
150.365
60.1593
47.5291
135.75
147.142
107.078
74.6901
97.2534
52.8405
88.6989
185.45
110.965
167.441
62.2933
91.3686
106.096
49.6953
46.7576
144.437
50.4992
91.4422
76.2371
116.985
108.876
57.6966
93.1783
27.8953
29.4904
87.4527
79.0377
62.6804
9.86994
99.5162
87.8088
62.7069
131.391
70.4849
36.9429
177.846
64.8711
133.654
83.6037
77.9129
111.886
123.887
92.2813
145.12
97.7987
28.3754
67.1288
61.8861
115.785
44.9656
105.375
80.0896
39.8933
43.8434
80.1798
59.8578
83.4813
10.3187
78.8696
43.1229
68.4443
102.657
107.413
32.3583
147.258
198.781
93.3295
77.3699
22.8013
23.4443
164.101
84.9013
163.913
38.9121
172.232
112.103
48.679
117.831
183.012
168.827
37.1358
51.5807
43.7417
189.35
51.5659
84.7541
50.1959
100.278
55.6587
68.0099
32.3687
34.7512
161.197
39.7885
61.8244
130.543
48.7738
90.3405
68.655
100.365
20.9357
108.23
96.6482
42.433
63.5475
63.7776
88.0016
36.1527
110.471
125.463
100.863
43.425
74.4991
43.9538
150.945
178.395
42.4635
19.2047
86.8334
110.944
190.854
17.7615
41.1454
17.6669
54.0834
165.077
38.8373
64.4597
136.256
85.8629
154.133
120.669
41.2351
69.9643
93.1465
34.0049
75.9297
34.2836
66.5944
60.2785
142.538
24.0379
75.3237
93.7513
138.664
50.8185
110.496
20.6293
63.5371
152.361
108.978
139.184
132.816
121.538
43.6152
59.3894
102.271
37.2633
100.548
61.4871
99.1185
190.592
85.7198
161.182
89.0368
155.044
11.2938
10.0325
76.3769
23.287
72.1482
86.4652
117.823
180.214
36.8811
81.6515
43.4245
45.0791
154.887
128.393
189.157
107.961
138.962
50.1316
81.6988
39.0821
156.384
76.4236
142.171
126.407
28.8741
254.313
85.1854
169.595
73.8616
67.0495
62.8732
37.0077
19.5099
83.9107
36.6102
108.909
43.5892
59.4259
10.3259
55.9965
26.4515
67.8384
43.3944
102.619
87.6953
13.0038
16.795
57.194
45.8769
144.408
82.1931
121.082
118.364
50.9437
9.33077
80.5799
47.0703
48.5437
69.67
73.8119
34.1861
18.5383
14.1342
110.543
47.8629
55.4685
82.2988
141.655
47.1747
47.4436
33.4443
50.4573
117.109
75.0193
76.8664
108.512
167.267
60.8504
74.4431
160.485
76.292
73.6223
102.245
72.3903
100.027
34.6081
98.2487
99.6513
59.3643
57.2683
125.475
89.3989
118.234
51.7589
37.0617
42.1423
119.721
39.4639
197.443
162.223
126.451
33.1775
26.3281
72.6896
54.6883
98.8395
91.2937
108.665
26.4055
114.97
56.1111
125.485
170.286
164.878
30.51
69.9717
76.1538
19.2269
35.3261
70.1561
77.8475
29.2358
61.1773
28.1677
15.6057
61.4766
115.561
111.401
125.708
40.4381
83.4429
50.9069
88.6067
83.204
74.4588
71.7255
129.623
82.1936
50.21
84.3305
72.8382
70.5698
118.698
95.3472
91.2662
95.8334
67.7461
116.965
73.5196
159.702
28.5118
155.015
100.899
8.82298
138.605
25.1377
68.0771
225.621
122.586
18.7968
80.911
66.2021
120.83
76.9087
44.6894
133.581
15.629
45.4413
59.1328
107.781
77.906
88.4975
22.6953
21.3135
37.1097
29.2065
40.4282
29.535
60.3693
61.2689
139.285
106.896
76.3115
52.2137
61.9698
71.5101
177.874
147.062
22.4617
55.4327
103.849
109.378
82.5213
136.669
49.9227
68.746
117.308
72.1392
92.6036
97.5723
57.0325
159.602
178.236
68.4089
48.7606
50.8891
35.9587
34.5729
29.8602
43.2703
94.7382
137.325
74.9479
97.6155
79.9896
147.253
21.778
42.8452
78.3178
134.681
157.124
52.0252
149.294
46.4004
120.99
65.3026
132.838
36.3348
66.2695
81.7893
8.67438
59.7026
108.315
136.721
69.7972
61.2654
139.518
14.6026
33.7937
64.1888
106.121
121.641
130.009
67.3293
34.049
104.236
79.5243
103.478
10.899
27.2584
89.6981
19.1807
70.0426
28.6853
146.766
53.5378
26.6877
18.1327
70.493
91.3895
69.6911
32.1938
89.4619
71.9256
79.3733
142.334
85.1681
40.8261
80.4133
11.7181
131.77
95.6371
34.3712
76.0996
41.3676
104.874
161.04
4.65282
203.863
24.1987
87.9756
74.2996
68.4587
73.6997
104.712
107.199
51.2907
101.244
91.6197
65.1281
62.1315
11.5104
88.2551
104.578
106.879
66.2495
65.3998
103.428
57.4382
36.7225
72.1545
71.474
113.813
104.144
28.8012
69.9696
33.5772
69.4829
73.5714
79.1932
95.189
62.0701
93.3791
82.3489
164.704
97.7682
124.611
67.4084
60.3332
65.6762
45.1355
94.0014
61.9811
52.4631
64.4355
95.6387
59.9358
59.6103
75.9461
14.9248
59.4261
170.325
40.7935
5.98329
58.0788
79.7527
145.449
121.574
77.2545
124.509
195.142
97.4288
147.044
88.9469
13.3861
115.61
87.5171
83.9443
111.068
89.3828
60.8908
103.047
123.819
62.959
108.312
109.965
8.31308
102.184
68.1262
172.98
99.489
31.639
29.6947
77.1849
44.5416
42.6956
89.6442
38.2204
106.486
101.75
39.8576
114.637
85.359
92.0422
50.5073
49.5177
122.383
86.4427
137.461
96.7647
90.4392
198.475
110.591
33.4154
56.7767
38.5586
105.177
121.877
108.828
44.6118
79.1629
52.2422
93.0271
59.6583
46.7796
155.189
148.138
101.113
96.144
11.9246
65.9286
35.4724
136.217
158.613
90.5438
66.3329
49.8724
101.709
114.527
111.78
82.9061
110.823
79.4774
100.132
134.392
117.951
46.0098
138.159
79.3821
126.038
120.094
53.0692
101.49
58.4076
86.5419
55.2673
34.7126
97.6254
126.678
62.4965
103.264
80.1157
159.095
42.2466
18.9164
28.8031
154.32
53.6552
73.8501
139.979
56.6442
126.175
81.6717
78.0092
47.7385
195.418
105.291
44.1102
96.8
45.2639
49.0982
92.4264
103.841
173.397
46.4918
158.305
134.275
53.1194
62.1256
51.5915
66.3023
128.543
59.5367
93.2786
104.58
94.5698
128.299
46.9455
53.5635
25.4441
105.168
55.0303
100.561
75.4117
206.528
53.0193
127.561
14.1326
31.0873
90.8388
95.464
4.08553
132.312
73.0361
59.3408
128.701
79.4711
90.9836
50.603
131.398
55.5076
43.174
105.028
55.288
27.3716
35.8811
49.974
124.28
52.9478
23.61
53.9372
58.944
49.1551
194.753
32.6895
31.6036
49.2445
30.5953
35.282
82.5127
250.162
147.855
13.6762
111.051
155.054
40.2838
47.1134
107.729
36.2665
78.672
79.7423
157.075
49.2339
115.85
133.539
52.3158
40.2843
35.7064
75.2276
124.848
110.372
90.0724
35.0001
10.5172
50.1417
15.6175
112.701
22.575
80.7917
130.22
140.062
93.2378
127.722
196.217
81.7797
131.553
108.983
36.6859
88.5447
31.052
52.3983
74.2017
55.5807
36.6437
114.896
52.954
114.478
154.876
46.5765
45.1082
95.3091
26.96
25.7224
101.88
124.482
87.6645
58.2059
12.7364
115.774
85.4032
102.387
91.3226
93.645
36.3271
46.0828
100.543
56.7403
41.0758
53.8924
47.6321
106.539
101.31
135.673
28.3735
107.104
10.749
148.64
71.5954
84.677
99.9697
33.2621
49.3347
14.0728
21.7621
65.0772
143.625
65.9036
137.668
16.3288
121.204
19.5589
26.2567
122.7
60.5478
127.15
23.4386
6.01806
2.44788
71.0629
96.7524
76.3977
35.6051
124.932
47.3107
130.133
70.8689
77.7034
22.352
145.563
114.409
110.505
96.7687
27.2947
43.7172
77.2595
51.8998
45.5749
44.8446
140.22
76.3097
95.8882
5.02045
21.7188
104.734
118.019
1.79053
34.5266
114.24
37.7371
61.2804
68.2446
46.4743
183.694
20.4255
94.0086
87.2343
60.3844
42.0389
100.782
49.2153
56.7349
94.9647
32.2156
184.019
111.588
53.2814
114.519
51.2299
39.0684
188.252
67.6874
35.0383
42.921
173.35
86.5682
63.291
50.381
107.706
87.3074
121.308
66.1094
40.7864
78.5021
59.3669
89.7363
129.635
103.891
179.983
112.193
52.3733
86.0285
34.7406
46.2991
18.1991
51.0764
67.8732
86.6157
59.3256
210.509
146.228
63.4985
168.81
61.7073
104.179
34.6756
45.9547
32.9623
96.3696
94.9247
120.658
160.029
61.5595
89.8178
151.156
170.838
110.631
52.7569
128.761
34.1641
109.885
138.97
74.5867
54.2917
28.415
104.118
101.228
117.776
148.797
53.0886
41.3921
83.3634
148.97
34.8616
86.1204
38.3985
115.773
93.3277
108.148
106.317
24.2345
45.8506
75.0087
16.815
33.8007
39.0681
80.9298
85.2048
177.764
81.709
86.2732
31.0555
149.189
184.985
120.365
109.485
23.0744
85.7431
100.375
31.0146
48.4293
38.3043
38.1246
34.4482
107.065
14.3129
79.5164
70.8291
58.4063
145.134
61.7954
88.3878
80.3528
40.8256
190.405
67.5615
92.6776
138.809
82.0025
59.0975
61.603
65.7973
76.5355
33.7463
29.2403
182.737
9.95542
50.8523
100.351
110.457
100.705
16.7282
120.374
58.7576
100.292
63.6221
81.3317
71.6492
94.0372
56.4907
37.0014
26.2144
99.2447
155.56
63.1839
22.2476
62.0579
62.4101
106.298
72.1692
77.6472
37.8032
113.025
47.3597
81.8696
111.178
184.825
87.5112
125.778
70.4565
96.1248
39.0707
130.884
127.816
85.3401
23.4905
44.4015
126.312
98.416
71.9843
190.663
56.6674
61.727
28.5013
51.7691
27.271
74.4688
118.854
78.2908
84.5207
5.71192
56.0391
133.243
50.0037
97.5177
38.5119
102.561
88.986
107.916
136.489
123.805
34.611
124.064
65.3075
76.5378
142.018
172.909
43.4904
9.56469
53.4
10.1183
133.514
61.5394
96.609
102.96
185.483
111.407
98.4327
74.9794
19.2859
45.954
134.855
58.2069
56.598
87.5155
59.1177
50.1362
22.2925
156.743
135.683
165.307
82.7438
97.2928
18.5762
87.3702
147.548
1.86513
61.5928
45.1853
29.4705
75.1633
59.756
111.799
29.1408
36.4138
45.2007
146.076
6.85574
66.3737
77.3181
95.5364
100.41
250.602
64.2574
82.1843
36.4264
157.058
77.1463
22.4001
121.091
85.7209
95.8256
74.2166
170.214
81.6545
102.032
92.1745
78.2213
152.724
31.651
48.6406
116.941
56.8947
45.6538
104.574
99.1524
77.6325
16.5229
65.9669
72.5543
64.5411
80.5624
63.8379
108.801
121.962
96.8005
60.7696
112.568
111.963
167.742
114.431
52.4657
74.6465
64.5922
20.4883
77.1501
80.2125
149.394
86.0915
118.568
54.7616
97.8526
70.3267
72.489
87.1549
90.0598
85.159
60.8242
123.374
69.1691
163.735
107.674
155.131
52.2983
109.581
69.9185
159.603
70.3272
109.955
95.7102
13.4619
20.3429
35.0838
61.6283
170.545
86.3519
21.3025
79.4285
50.8898
114.347
148.349
131.257
21.1662
43.9825
65.3726
142.367
107.116
19.3532
103.721
51.0521
47.1912
73.9432
96.342
78.6531
89.0828
32.3741
61.9401
76.2111
64.6444
53.2979
48.943
139.233
68.266
132.415
108.246
18.2437
30.4119
79.9137
85.4341
33.2482
67.3728
131.959
36.3135
74.7476
90.3604
57.3713
222.853
53.1085
102.374
141.67
93.9406
109.787
101.108
39.1741
160.295
65.1383
94.9777
76.4966
187.187
23.7646
149.253
110.572
153.465
96.4654
57.6782
29.5052
54.0149
165.49
24.1452
48.0337
79.9612
107.847
111.879
154.053
64.1337
36.927
135.353
87.1389
73.8721
52.0419
125.793
97.833
63.5615
79.6479
97.161
121.856
50.7529
95.6786
46.2244
68.2016
121.347
98.3296
69.3198
44.775
177.197
119.378
37.2051
83.9444
56.6673
104.54
101.68
21.1513
127.279
116.877
38.4366
96.8223
148.878
12.1525
90.2089
117.341
64.0634
121.249
152.908
129.925
136.24
99.1354
59.2471
63.542
13.2414
33.7019
170.248
94.0209
137.682
66.4077
171.146
31.9756
108.528
93.3264
37.419
87.8267
116.3
81.4759
73.3499
144.126
16.0756
35.4787
186.157
105.904
91.9299
63.7532
124.91
73.2619
132.077
126.534
133.495
70.6794
11.5692
77.8241
128.941
28.417
151.761
54.9995
51.8407
21.9698
87.8256
149.377
147.439
94.2877
96.2695
114.58
35.2964
45.4235
118.826
65.5005
110.384
73.5763
88.4288
31.6725
55.7832
110.846
111.18
60.2907
62.5411
120.459
105.938
47.5679
108.588
101.573
32.3803
38.0646
93.1442
59.8258
126.135
11.438
125.437
95.7544
124.595
22.7318
83.2958
133.725
59.047
101.198
35.3357
60.6495
116.263
104.521
64.9497
22.9909
56.6132
34.8951
86.1442
108.753
52.4237
101.4
61.9397
47.5541
125.391
25.5407
54.4715
56.8452
72.776
60.046
62.4717
77.9484
135.105
104.202
131.861
14.8491
76.1586
25.1942
54.8654
29.0775
140.747
82.5363
139.807
53.8585
106.076
46.2921
145.258
135.732
120.315
122.929
140.441
109.515
70.7425
102.258
81.4514
103.633
51.2589
175.142
50.0711
36.6315
139.596
153.728
95.337
152.107
118.989
52.1114
96.6653
33.9818
39.4126
92.3707
103.039
40.7813
187.756
128.744
29.8659
113.082
59.7487
95.3582
40.2449
148.487
91.363
120.258
226.417
85.647
59.5477
68.2737
46.1871
61.9325
124.295
39.1414
12.7845
116.411
106.872
77.9949
51.3667
46.1646
64.7611
30.293
8.29355
72.4216
55.3519
84.8707
79.8373
87.3644
75.2172
72.8031
51.5903
54.2526
93.7704
174.426
38.9412
32.1148
186.983
75.5746
48.856
139.82
64.3971
133.55
98.2601
55.7646
116.567
163.523
42.8338
96.5186
48.9698
14.3988
102.96
27.9851
61.6315
86.2111
113.31
43.0901
88.368
48.8443
102.379
66.3402
50.2898
25.2175
157.318
59.6278
11.2997
173.315
127.837
27.8228
25.4237
81.6352
64.4089
121.12
127.257
36.871
61.095
38.1366
2.34986
54.3577
144.002
67.8588
181.604
51.9933
73.3145
59.4297
118.037
145.013
75.9559
122.175
63.5496
165.255
102.357
77.4912
62.2989
70.0941
36.9797
10.437
68.0887
60.9196
58.656
106.945
69.9228
50.4842
52.0158
13.5248
22.029
93.4653
87.8178
19.5357
35.6304
76.5012
109.508
17.1301
145.811
88.8278
26.9692
76.6689
64.7203
67.1349
13.3734
102.529
139.067
150.543
109.813
24.0343
84.217
132.234
84.2726
109.489
41.6304
70.8008
48.9598
123.991
78.3157
56.5695
86.295
95.4941
58.609
30.1803
64.3732
78.3186
119.376
83.6453
106.347
40.1914
66.6547
121.097
70.4543
85.0138
15.1206
101.525
76.1204
87.5883
39.8429
42.2744
85.1299
56.0119
65.0122
78.5195
34.524
48.676
68.9569
39.9861
106.822
141.177
56.2841
152.129
84.2948
57.6635
39.1917
39.8337
80.7534
63.2092
102.554
145.986
149.112
201.8
106.858
126.868
35.9601
54.3127
191.989
13.992
52.2149
39.8614
79.7547
66.5225
112.435
214.984
10.2673
33.0081
141.653
82.6935
31.1043
45.4558
130.105
67.9758
133.431
47.6895
45.0531
40.5435
68.502
95.706
96.2438
183.045
72.0793
78.498
86.3126
59.1126
95.6807
111.661
153.161
102.873
154.335
209.897
92.2552
155.959
85.8437
51.1445
62.9473
79.4206
102.718
82.1819
187.13
138.62
65.5382
69.7907
94.7392
87.3674
76.8657
40.4838
74.8312
120.126
23.9665
47.2059
131.953
31.0726
75.2157
88.2516
55.9033
17.1182
59.9521
10.6519
18.1351
17.0424
88.4069
149.784
158.751
73.6638
98.5554
45.895
105.71
60.1723
75.0391
78.2611
221.115
112.869
30.3767
155.24
23.9574
35.644
99.7694
64.6626
56.2315
51.5724
8.98084
61.5796
6.68165
67.6664
148.304
110.3
84.9389
32.5303
60.8989
190.311
35.238
45.7154
54.7289
43.1434
85.3628
34.6376
54.3452
195.747
49.7204
68.1799
178.929
20.8644
80.8048
27.6748
105.926
57.02
83.0059
109.986
160.267
31.1307
31.5516
162.141
86.5015
170.77
71.2589
82.8359
35.8154
35.2603
72.3999
172.161
322.389
89.4317
110.414
73.658
37.7347
85.4791
45.619
89.0345
64.5818
16.4534
154.414
81.9028
127.862
93.2916
113.021
57.6607
55.0558
143.31
90.9745
99.6527
95.6989
96.664
172.013
105.951
42.927
97.8216
136.535
147.513
73.3026
50.9155
95.7419
57.4354
173.605
111.829
70.1733
116.92
72.763
121.467
22.0982
52.2544
137.756
88.5234
94.3278
66.2726
96.6159
48.619
76.3441
52.8344
179.196
26.4474
95.7497
124.939
143.575
32.3778
87.0395
81.3911
42.8087
46.254
71.5002
58.6042
24.0951
51.9226
138.276
62.7565
78.0851
101.028
65.6884
77.936
233.488
94.7401
19.4058
29.7234
44.1817
49.4245
115.923
79.9076
88.7775
49.0281
62.6404
31.2212
136.833
43.3428
168.936
85.6345
72.7942
24.0991
71.1083
92.0722
148.432
138.241
94.0432
114.593
99.5567
98.3154
64.5373
93.4155
94.2919
94.0566
119.162
108.789
28.3941
40.4012
85.7645
109.217
39.0524
82.7203
72.2448
112.55
203.217
104.356
109.445
91.67
178.965
54.6873
98.7918
98.318
63.8892
104.228
38.3867
19.8195
61.8586
10.6337
49.456
99.784
14.387
91.927
54.7864
178.889
44.5233
68.1207
66.3449
93.3594
64.4882
108.139
185.496
47.9567
75.8589
39.4234
157.024
223.575
87.4155
73.5108
155.974
74.0168
62.4744
38.5634
91.3308
141.911
143.483
29.8445
126.542
14.0605
29.1942
31.4134
81.5635
64.5842
47.2193
161.338
37.0741
99.2589
58.8892
22.3658
129.218
61.6849
64.6263
12.5141
38.9585
95.6766
107.518
30.8296
135.392
122.68
80.7527
52.9733
93.0094
64.82
163.957
64.7475
90.853
113.654
131.049
57.9674
194.509
125.325
104.687
93.5696
132.83
68.6253
41.0892
45.6748
121.345
115.27
46.5552
6.41398
73.7779
123.855
73.6572
98.7484
39.5827
67.5723
28.4337
183.502
66.7269
37.9652
111.54
114.427
56.5283
107.326
104.089
72.031
26.3853
108.492
43.1856
10.2767
120.77
50.2816
106.25
93.5108
89.337
66.1409
3.27337
110.803
184.48
138.744
99.5645
125.735
178.141
144.625
69.2218
67.5978
181.671
29.5029
96.3493
82.7776
66.9798
34.8219
129.366
113.598
115.44
72.9805
101.738
76.1568
111.723
103.105
158.484
83.4958
51.326
123.741
140.69
72.301
85.7674
69.4172
66.3537
108.462
33.4287
112.158
35.4744
89.7228
203.796
11.4977
29.1965
104.226
61.6821
61.4553
85.0653
139.358
175.816
36.2916
112.807
73.5954
133.899
118.199
19.1145
58.0224
48.9956
111.221
58.6205
65.7279
42.0434
64.8843
84.6436
108.035
169.334
157.82
35.5423
10.714
60.4305
129.214
134.399
113.617
66.1416
84.4005
67.4412
76.35
116.648
14.7558
42.329
91.7539
42.2707
34.798
67.5254
26.6155
76.5372
13.2578
65.6426
47.5951
100.208
33.0696
20.7548
99.0604
109.035
59.3983
84.3009
146.99
59.5433
66.595
111.604
20.2924
127.631
135.778
134.895
135.394
80.6823
62.4929
9.86739
76.0382
98.1976
123.71
169.903
82.3774
144.488
128.823
62.2313
32.1095
48.062
50.6006
35.1951
69.0294
144.146
202.75
147.535
33.2801
100.95
39.4042
138.642
30.8114
125.799
54.7585
103.444
175.723
77.8236
66.5291
115.334
153.906
151.649
101.956
52.6308
40.9348
115.841
22.1516
105.862
22.6573
136.121
85.556
226.393
156.047
64.9324
154.827
51.1238
72.7301
79.2488
30.4595
31.6479
95.138
123.087
51.1438
87.3744
51.7971
39.2343
140.504
64.4126
59.6678
150.926
65.8029
38.1219
49.4879
108.874
127.687
168.952
39.7572
199.226
98.6633
1.99873
49.257
158.834
25.611
54.8658
60.5847
79.7639
116.838
79.5887
23.9187
64.2941
159.177
96.8211
48.8277
47.9856
14.8072
28.0223
103.455
142.998
152.327
57.8092
56.4744
140.045
182.038
113.981
109.834
73.0912
21.2364
45.695
108.55
1.03048
70.7452
82.6636
82.8414
9.30671
156.407
60.3668
46.5973
28.4351
52.5758
148.467
131.237
42.1032
75.7558
167.808
102.958
33.1395
88.9456
107.048
111.278
57.638
122.162
28.0355
64.1251
48.7123
59.3622
95.8481
80.8758
58.2327
89.4116
145.394
90.1572
45.6702
85.3622
39.7584
24.369
98.8941
92.7638
40.5082
61.9486
59.8818
82.5843
92.4925
85.6381
110.614
45.799
94.4843
86.8704
99.1744
129.882
71.3157
55.39
220.928
126.802
28.9016
72.1701
62.9383
87.9719
50.4594
70.501
58.9697
48.6582
85.1434
37.2847
51.403
32.2121
45.0067
95.7277
80.2947
118.134
56.6055
90.5747
85.6881
187.317
125.769
