Bruker BioSpin GmbH: the minispec
DataType=1
DataLimits=-81.9672,81.9672,8192
DataUnit=Freq/kHz,
c:\users\student\documents\nmr-apps\fluor_ft_pcii.app
07.01.2025 16:53:53

71.5466
47.6656
43.9795
77.5161
111.861
152.339
10.8712
72.6819
89.2411
47.0692
65.7
135.417
104.054
29.0958
25.6804
148.539
132.826
77.5747
101.108
79.8489
92.8676
108.569
93.6211
153.988
77.7135
28.2457
141.766
75.7134
148.411
155.319
49.604
78.5024
98.0655
55.3504
44.9674
70.1341
33.6579
38.1682
209.035
100.288
77.6463
105.9
42.2159
45.4995
64.5945
29.0167
43.5033
106.523
108.974
127.48
33.6363
70.6373
52.0209
80.5281
169.173
32.1453
55.3089
54.2474
193.605
1.26262
102.719
126.349
64.4625
123.502
160.079
72.6072
47.8908
155.629
115.654
112.725
130.396
103.873
59.8429
131.048
118.034
75.2101
72.4602
9.85725
134.476
90.7828
176.916
153.098
108.487
137.894
67.0146
62.0543
60.3792
90.3131
103.756
52.8661
63.1843
95.6918
39.7327
143.06
51.831
118.131
123.966
63.9655
64.8138
117.129
39.2995
79.3036
65.2722
78.9467
76.1432
113.322
209.919
79.6458
96.475
83.9722
93.9664
63.6022
32.7307
102.057
122.397
101.441
84.6521
79.4942
93.2325
132.137
58.1988
175.579
124.342
116.774
107.525
97.8236
156.111
156.567
41.8047
60.811
79.1475
90.1569
46.3653
154.839
103.524
104.336
33.7867
31.7844
43.7956
114.723
118.07
11.0001
120.788
52.448
75.8176
156.618
81.0485
108.684
63.7116
77.4262
64.6412
18.3167
88.0641
76.6644
157.494
16.6533
96.5107
77.8054
81.4428
64.1792
39.1877
227.14
135.873
31.9916
52.2347
80.5401
45.0145
118.323
98.3967
151.405
84.4469
45.0749
51.3496
112.326
35.1957
41.9663
157.729
65.1199
119.758
93.664
75.5386
117.343
180.424
96.7765
4.83708
93.3526
81.9509
45.6673
56.5781
33.778
33.2213
14.9378
124.635
63.8033
50.8424
99.022
36.9407
38.1943
139.146
114.253
84.9572
64.056
19.9145
105.214
88.6225
47.8142
146.077
63.2281
188.938
37.3065
51.5575
55.6569
102.451
97.6708
163.979
70.223
51.8209
34.2059
133.446
39.9786
64.7312
109.65
109.152
79.2561
88.3712
13.1362
68.4396
100.529
74.3727
79.9675
55.7948
136.933
122.2
25.7533
133.022
138.346
97.787
134.796
55.7246
62.2545
110.432
160.547
112.921
129.869
108.853
168.437
77.8178
84.8545
62.2416
99.0532
111.052
13.7015
77.5584
30.675
55.3667
61.9868
24.2383
105.661
174.15
42.5595
18.7167
148.366
88.2009
31.6237
100.255
28.0351
101.971
13.6573
69.8814
123.829
128.741
137.36
134.622
111.22
64.6791
116.728
77.2753
73.0095
179.425
49.0591
173.895
32.0217
75.8635
47.9702
82.5808
10.8221
53.0777
53.2091
139.506
73.3329
66.3789
65.8775
111.165
47.6231
35.5609
23.9413
11.8647
165.313
59.5387
122.293
39.7935
91.3287
80.3246
197.288
166.355
85.6027
30.2264
103.396
84.6139
31.8022
60.5676
86.9328
115.055
35.9626
122.94
26.6258
72.8875
61.4033
66.9246
120.902
143.66
145.608
117.039
35.5001
75.3195
29.7192
100.792
55.5649
36.2177
80.1511
83.5735
51.7134
68.1908
48.2455
47.038
70.581
143.007
50.8058
127.996
110.954
151.156
44.7042
70.6576
156.322
123.889
25.6047
98.6876
95.2305
71.8677
71.3911
44.9633
55.9566
166.718
58.3298
62.4335
89.0885
23.6181
178.205
125.082
7.88495
76.4759
78.0559
35.8416
28.4111
144.365
122.24
71.4145
42.5087
114.023
94.869
84.2089
80.2746
60.9008
72.5851
40.6961
51.1248
107.604
57.0059
76.0248
77.427
85.6876
47.5579
73.9062
170.139
94.1548
67.1766
82.8757
73.0327
153.641
106.552
44.6848
29.2207
113.736
126.068
116.922
78.5795
21.1794
47.9909
122.339
101.807
76.5674
42.4245
122.605
60.0912
66.4528
103.733
120.064
155.268
79.1856
55.7849
56.0118
143.691
65.5366
52.28
62.3849
78.2464
105.389
47.6804
89.273
83.4508
90.4597
89.1437
65.1798
62.348
53.0842
76.9497
17.128
117.227
63.4852
32.9884
116.033
100.327
83.4898
172.339
44.8675
88.8382
24.0916
152.474
96.8757
124.906
45.6916
98.0228
71.0154
64.4532
151.511
52.3732
89.2985
25.1055
110.364
51.165
104.88
61.6298
95.9211
41.2359
44.535
72.9338
62.1597
37.5783
104.942
132.438
8.46174
77.0394
70.6417
92.2345
77.0718
65.3088
47.3951
18.978
171.223
91.7005
44.71
43.8662
23.3604
118.17
63.0099
158.669
135.041
35.3463
192.984
74.9636
74.4286
106.994
51.4192
20.532
34.2346
91.7539
63.4827
140.467
75.209
92.5946
100.03
60.4388
76.6362
112.573
183.618
91.1224
162.176
82.384
67.5692
99.8524
108.926
120.911
84.8974
55.2467
101.593
34.4168
91.4377
110.322
58.6148
30.3963
72.5506
113.417
110.884
97.0657
74.1883
87.7812
55.8307
159.136
75.2601
51.0513
91.6686
45.1837
64.3706
29.4978
53.1668
125.108
112.611
44.4293
110.683
59.4278
56.6279
83.2947
54.9337
41.269
74.8747
130.194
158.137
8.05656
65.9417
76.9378
28.638
79.5694
111.534
144.213
106.157
46.3562
30.9285
40.5111
34.9034
92.9109
115.949
47.6364
137.191
98.6486
78.2066
97.9192
277.116
138.084
101.801
46.0738
72.3679
187.556
86.4973
43.1925
25.3341
31.1196
122.349
96.9856
7.85349
1.98012
75.74
71.6446
60.3361
56.6098
168.881
87.9068
176.076
68.8401
61.081
65.6326
58.2025
62.6359
178.425
103.305
110.254
128.513
69.2967
101.734
84.8177
55.4273
55.5271
31.6232
83.247
55.8272
69.8097
53.3343
64.3638
66.287
107.117
32.7918
98.6801
47.5701
177.908
64.4198
119.878
132.056
98.6856
87.1668
111.97
202.892
147.727
119.375
81.1924
102.705
89.835
38.7346
67.752
46.4261
177.266
91.1773
129.084
64.6775
158.274
86.1948
117.894
88.0561
62.1989
149.111
88.0324
67.6576
84.6175
92.0193
34.7376
115.962
28.583
52.7622
71.9462
115.619
73.5688
136.908
43.5373
71.6313
133.645
106.129
80.7959
64.2456
48.9403
67.4484
98.1088
105.279
84.0865
87.0893
43.1877
48.1179
95.9594
57.611
14.1967
103.082
97.8872
66.4158
90.7442
52.3279
58.8729
130.596
145.023
131.246
158.892
63.1712
99.8792
59.5405
97.9717
25.1772
54.9746
30.3361
122.722
67.7935
19.931
86.0712
50.671
40.207
91.9272
33.1002
150.005
100.366
142.609
10.6168
99.6419
150.715
26.3626
93.5522
143.444
26.7123
27.8563
59.3593
159.95
119.009
175.497
168.162
21.7088
147.554
36.7872
142.159
24.6052
53.1024
113.984
105.094
86.3492
77.1756
33.2332
118.395
98.7675
30.8659
85.5511
41.6908
143.327
102.255
92.6522
78.6063
183.166
53.4344
77.3219
35.9815
107.038
147.628
80.4111
136.499
109.89
185.435
83.3595
60.1095
153.664
33.2477
64.5469
80.8157
103.936
15.4686
159.942
79.8064
84.3843
62.3009
20.4271
52.5138
81.0744
208.332
136.61
146.789
74.011
48.4739
24.2152
71.8907
73.3648
127.736
97.4747
157.895
39.7552
122.844
89.1341
135.053
136.236
93.0113
58.872
4.58608
56.8392
100.082
117.519
40.8453
63.9379
82.9063
106.282
134.817
43.4309
45.4321
119.188
71.592
87.7681
89.7174
34.8177
94.9654
152.487
41.9969
94.9821
100.238
106.662
30.7856
69.2945
226.801
53.4872
13.8137
44.0164
94.1268
104.948
118.137
78.9872
77.9904
74.5763
49.0167
60.9038
71.1959
69.1706
92.2394
68.3076
56.2525
23.611
129.277
184.279
88.3576
99.0092
78.2677
107.496
187.244
78.8622
88.1211
128.828
131.097
75.6705
62.7253
81.1829
73.1371
31.007
12.6629
58.5456
66.8169
54.4574
21.5741
50.0244
85.9203
110.731
66.4448
76.8661
125.184
72.1548
83.827
28.955
21.7211
19.0034
59.4575
30.0584
91.7444
138.565
26.8419
141.935
93.4915
28.9376
49.9445
70.13
174.789
106.858
48.8848
99.8813
73.9482
32.0975
122.412
70.9534
95.359
94.8278
56.9408
168.957
81.1033
116.293
98.6637
88.7524
96.4025
106.171
121.782
139.954
110.682
15.6285
236.401
72.9819
18.7611
58.3058
74.7847
111.602
105.111
27.0277
95.5476
90.715
94.4442
91.3756
48.9615
30.866
105.001
141.243
169.025
61.0509
6.92896
101.237
23.6297
81.052
56.851
63.9996
109.63
139.236
98.0237
75.761
43.9401
40.9186
89.0286
132.015
31.1999
131.585
70.9177
113.613
79.2511
95.9883
119.899
63.5136
39.6771
65.0774
130.309
68.1225
40.2521
64.5845
95.1985
51.9116
39.5802
88.9814
71.0776
75.655
83.5953
99.8234
58.2669
38.1031
149.517
86.6884
38.7491
93.4521
153.542
54.3838
60.8526
58.5794
20.0867
27.279
122.469
213.361
45.1661
50.9859
17.9163
93.335
21.5268
38.9473
86.0189
133.112
103.658
142.311
70.8004
59.7433
36.3435
75.968
121.808
49.5461
45.4565
56.6479
68.7256
122.368
151.646
163.837
46.8102
79.5872
40.8326
62.9186
85.4307
180.775
61.092
105.952
80.2305
52.0383
76.5141
14.663
18.5028
77.3127
76.9059
143.809
110.055
28.2379
72.352
64.1228
62.8282
141.484
61.3964
69.8268
73.4819
97.8478
41.8357
63.9574
39.5176
123.013
62.5685
50.2324
52.7394
52.3875
80.1296
51.1715
98.1031
118.878
90.7247
102.353
90.4289
162.332
201.574
97.7794
70.2153
172.55
115.794
102.205
127.036
18.2528
133.543
138.322
42.1514
40.6562
181.667
125.41
33.9256
87.9775
99.0331
82.9661
12.4611
109.494
211.998
54.6905
67.0116
62.8234
183.39
42.2938
109.155
51.6731
36.6606
49.1036
57.7327
101.651
183.966
51.8955
50.3736
6.50575
62.6016
127.101
51.7476
32.8502
58.684
163.423
7.93396
119.609
24.8509
31.8387
121.696
106.088
25.9658
81.7153
120.622
70.8531
108.487
114.366
171.496
17.9743
80.2462
132.695
19.9585
127.048
84.4675
134.742
55.3105
54.372
89.8283
178.765
36.6437
92.3605
132.661
168.971
61.6322
78.8139
23.9375
114.852
87.8208
42.68
87.062
79.6889
159.36
128.486
16.9092
101.413
95.1506
116.674
91.8672
58.2081
48.362
57.0592
127.305
43.1807
25.9049
37.9878
164.704
135.218
95.3997
45.2623
40.2871
69.5957
210.959
112.748
76.4134
125.468
3.78525
156.347
90.8117
124.132
95.9345
30.4975
31.7552
82.7987
59.992
45.941
106.924
58.939
97.1767
53.8001
48.0895
50.1903
183.283
75.536
81.7234
77.5172
52.4441
133.428
43.0958
98.5743
49.1329
130.566
42.5377
47.362
45.3412
109.383
103.79
124.188
59.3533
60.675
22.3869
82.0424
63.2828
90.4438
90.4329
29.12
40.3195
95.5203
42.1183
92.3523
116.733
94.38
183.849
117.524
118.373
23.8959
206.213
76.6813
70.7134
67.9709
25.8284
18.0615
204.482
99.1061
61.7572
54.5013
112.626
180.493
125.772
116.28
25.8485
34.104
21.2846
80.7238
63.5147
94.9801
126.285
122.985
85.5923
45.0941
92.3957
62.8055
94.6816
27.6685
74.5669
81.3208
52.719
128.954
55.3517
44.0122
71.6513
88.1929
161.811
120.215
85.6985
109.142
57.9033
120.456
131.708
149.663
117.439
39.1125
100.366
88.0999
100.503
43.5666
56.5979
101.481
48.9718
18.6803
54.9675
27.8936
115.666
113.841
63.5737
28.1925
46.808
57.0725
80.5867
54.3435
21.8796
92.5992
73.4123
139.508
84.1103
26.4643
51.9329
68.6534
97.5254
55.0064
85.8277
115.569
133.462
32.5525
57.7878
81.1259
33.5012
341.635
75.8895
111.099
183.283
82.6107
96.3173
90.1623
147.189
104.833
12.1176
66.593
40.2735
76.1868
3.96425
112.338
48.7749
187.363
72.9895
49.8926
121.06
108.298
35.4269
119.372
96.4092
101.304
21.7139
64.0852
46.7044
60.5746
42.6111
50.3254
72.5574
21.562
22.948
85.5164
125.736
50.9683
42.0793
82.7313
70.2423
138.653
11.6864
115.485
69.5384
79.1502
34.0212
47.2813
87.5314
66.7423
93.7027
62.3151
69.3644
64.9769
113.56
47.6005
84.1305
63.1485
114.594
27.5163
91.4589
100.178
90.8493
70.6483
42.0378
66.1927
110.343
15.3461
52.478
164.286
75.5065
62.9545
71.6523
120.447
135.291
134.629
53.0643
40.4213
124.57
124.84
50.2628
88.6049
104.267
82.3786
40.8546
47.4447
23.4468
33.1514
166.042
10.5608
71.7233
47.6817
143.305
78.7313
68.2103
61.2876
85.839
82.6896
121.649
63.5481
158.231
110.74
68.2726
47.5549
113.332
56.4294
43.1628
116.729
34.0321
83.8213
23.9916
39.1617
113.331
65.4265
71.204
116.535
58.7452
43.8864
51.9608
24.3938
88.3523
20.9827
40.5805
44.2815
109.004
34.0145
25.7739
135.604
57.4821
78.3723
85.3115
124.326
18.6502
19.5478
82.4588
11.6402
164.435
126.187
22.7764
123.867
57.7027
117.577
46.5847
95.9765
199.488
71.0336
73.6702
13.4375
99.8613
68.835
27.8031
136.384
76.7868
88.3711
159.145
36.9478
104.076
98.5056
145.571
34.0527
106.31
60.8778
123.419
69.806
35.3872
53.0924
71.6311
37.9372
60.6699
98.6107
142.374
104.276
80.5103
62.6038
106.523
50.6443
133.372
122.887
52.5347
32.868
52.8909
77.7343
48.0583
142.618
112.606
69.9339
131.083
46.6121
154.812
72.3475
105.818
146.058
169.367
23.2892
38.7722
102.69
9.21469
105.098
41.4061
94.2589
27.2456
97.4988
113.626
48.649
46.1174
54.857
120.401
137.993
86.6414
93.1843
56.3142
169.94
77.4088
145.614
47.1279
28.2116
44.7877
131.977
220.246
29.5158
78.6617
71.1977
68.2113
197.685
45.0537
139.192
37.8333
117.711
46.0013
99.8579
45.8719
102.591
8.66063
103.487
114.28
102.686
126.218
12.4038
44.2263
125.689
122.247
198.951
38.4907
35.3938
98.9695
36.8865
100.611
106.742
40.4035
172.911
18.9923
161.251
60.5381
79.2353
104.645
40.4438
63.9342
155.956
25.0849
73.5544
46.7922
67.2768
166.428
128.464
25.507
146.533
67.3227
65.5488
107.377
76.4388
25.6295
156.119
80.5562
48.2349
89.1305
120.043
98.9069
50.7048
101.047
77.3968
117.548
50.4047
47.3863
88.3856
179.488
112.816
56.9784
54.4136
48.0206
85.742
16.6513
103.629
83.1645
61.5767
75.2231
56.3229
77.0512
157.053
126.103
27.48
85.3559
58.7449
38.5644
146.926
32.6414
70.6184
67.1033
16.1933
103.739
49.121
64.4199
183.391
80.0991
42.6063
22.372
93.7903
53.9957
132.917
118.813
172.228
152.192
16.958
90.9425
20.0258
77.8667
90.7689
84.9315
104.893
99.7582
59.4741
140.01
73.0079
80.5594
55.313
140.504
39.2132
115.206
13.1845
13.8766
91.1316
31.7974
48.0484
86.1293
88.0002
90.4762
128.734
50.8361
19.6713
60.3809
85.9503
117.067
80.4832
51.4177
85.6656
133.417
22.3147
49.2527
89.3243
71.8878
76.8014
155.047
215.671
88.3282
43.1576
82.7425
111.876
122.25
191.221
23.3211
31.1808
35.2198
34.9652
65.812
143.513
54.7384
76.618
46.7675
100.532
18.1251
22.8832
134.073
134.238
111.901
135.636
93.8143
59.5431
114.191
88.0401
72.5249
72.3357
11.8207
112.658
152.226
64.5776
100.891
112.947
86.5431
76.8215
34.891
66.9748
76.2777
49.96
48.3702
99.5207
31.8635
96.1671
81.0764
154.207
79.5786
52.4284
183.378
75.5235
104.23
113.349
52.9996
134.206
147.324
128.584
106.411
48.3715
86.7592
55.1495
165.865
13.0857
173.787
91.9403
86.3578
169.659
134.027
125.582
64.6802
77.5831
145.575
140.518
57.0057
76.5595
144.382
109.043
118.887
95.9401
72.5379
128.237
132.995
117.981
113.081
196.26
94.3642
58.435
41.3345
81.9437
81.1093
107.566
97.8435
52.4408
77.9045
7.45234
82.3879
65.7598
77.762
121.626
41.1153
148.666
73.2582
40.8903
30.3043
100.086
116.066
51.0241
25.442
78.9531
86.2452
191.197
74.3585
108.268
136.806
107.395
63.9537
98.9429
103.58
29.7918
46.9868
91.6756
69.9572
66.4814
28.8315
80.1304
100.781
76.4835
79.0146
49.8434
159.965
68.5631
98.6483
52.2402
68.0565
74.6723
120.457
172.721
91.3339
11.5514
37.0082
42.1007
78.8924
59.2382
175.362
97.9329
101.183
154.816
41.5175
120.859
142.564
49.6183
131.184
44.1406
130.311
68.0457
149.293
37.4786
128.091
71.4849
81.7722
60.9259
36.0841
99.6994
111.845
192.13
83.4019
81.0532
90.7968
93.5261
94.3916
44.8082
21.4747
87.3362
119.427
71.552
180.977
39.3055
28.6138
35.6987
33.7989
50.7686
100.628
99.2124
44.2934
126.721
38.0783
48.7744
107.673
40.3298
47.5789
22.8731
103.223
86.6253
57.1482
131.309
70.3458
40.2587
186.818
145.78
40.4944
96.9906
66.7057
100.226
117.477
143.158
51.2468
47.5872
134.316
82.9309
87.0377
158.381
61.1879
112.327
142.885
138.534
87.6218
115.498
43.8679
28.0549
98.1748
203.738
79.2844
125.202
63.6845
62.633
88.2968
81.0197
99.9806
46.7657
86.8848
37.3356
143.695
25.567
112.572
224.494
97.1255
44.7019
115.587
44.4663
118.337
137.498
63.2356
76.5619
20.5451
60.0973
92.9599
136.538
95.5027
178.245
259.011
83.4738
89.279
41.2155
59.3108
110.839
84.0356
72.6733
90.3117
97.3434
106.247
30.0863
179.263
75.0305
155.901
158.296
68.0442
44.3027
79.8577
83.4397
91.0527
196.801
140.744
70.5783
67.4567
103.406
28.6097
40.2346
115.282
86.6197
75.6274
61.1363
35.8068
71.8295
67.3755
119.396
66.8525
105.052
90.8562
93.6388
56.5353
143.098
67.3085
135.61
58.4293
87.5363
20.1925
62.9905
77.4477
86.9902
64.4803
93.9294
71.5105
69.3303
150.77
20.8678
102.989
48.8963
135.334
70.5279
53.7188
79.4354
41.4386
59.3922
21.4542
159.265
21.7348
69.7844
75.9106
18.8147
13.1428
10.3156
139.882
42.3209
60.6624
68.7734
92.6735
29.5379
68.6268
107.555
39.7088
106.073
54.1576
108.796
167.226
94.2727
109.197
80.4416
58.3599
40.5509
43.2947
77.0961
31.562
61.1261
14.693
45.1858
92.9097
47.7756
35.5038
79.3083
79.8521
110.024
180.842
72.3401
90.3512
25.8228
141.14
115.331
53.839
131.776
18.4307
187.34
71.2933
58.2701
103.953
104.481
70.217
60.5097
202.066
4.70412
165.004
150.522
59.5183
71.2356
26.7956
71.8575
64.8552
56.6452
55.4755
117.53
87.1129
97.1075
109.238
126.663
70.9365
28.9204
137.871
50.2784
118.234
80.7687
154.357
133.781
84.4736
83.685
193.74
22.3617
90.5702
41.9213
178.294
37.2505
119.718
113.25
62.8191
38.6944
69.7197
77.8369
62.0689
32.1751
68.7451
137.451
82.45
91.0355
117.259
118.463
168.809
21.8407
103.638
175.13
93.6085
66.5737
129.783
123.757
58.4427
201.621
80.2413
74.459
44.5301
71.9919
82.048
29.0487
149.588
63.5449
63.8348
48.3691
38.6019
162.887
103.453
150.313
154.332
139.337
50.2388
64.4288
116.951
64.5108
106.343
46.6045
107.58
76.5806
100.34
84.6735
55.5698
76.9443
121.331
112.308
19.1227
56.4485
63.6769
92.685
155.125
114.012
56.0945
191.04
43.1638
89.7103
72.4815
83.3906
111.46
68.0857
96.8048
166.189
131.219
114.174
65.2357
14.0817
121.847
118.353
95.5742
33.1843
63.4996
63.7024
26.4745
121.688
102.202
81.159
41.5234
62.1275
41.9416
94.5436
62.514
131.836
173.021
101.692
72.7557
151.423
97.6768
43.4723
100.568
60.2732
11.8579
128.342
156.341
99.8808
23.7326
72.2182
121.961
168.794
33.9768
7.16742
40.3678
74.0728
79.5395
52.6389
52.6524
27.6586
60.724
72.87
54.8037
45.4812
112.488
61.9543
80.1545
97.1415
72.88
102.337
84.0839
152.895
93.7139
70.9983
192.182
8.8114
85.4937
124.11
71.6995
51.2468
45.9819
43.2342
56.3725
90.9092
63.0369
34.2083
46.0997
68.4426
84.211
40.8798
108.482
91.0213
89.1366
112.405
32.4333
43.0166
102.598
41.9966
135.958
76.495
81.7508
17.7359
78.9454
27.1464
71.0593
135.56
77.1492
54.3975
123.343
48.7414
23.9822
110.919
23.4796
41.0726
38.514
151.529
28.5839
90.6713
119.948
120.639
30.1289
53.9672
53.0341
142.259
112.621
38.1012
86.5038
51.2084
115.106
105.675
103.138
202.343
40.9264
61.9391
55.3936
209.114
5.34322
43.6737
62.7956
63.7629
12.7641
153.451
105.975
120.651
118.612
58.8342
157.078
115.114
63.8889
40.6911
19.5779
134.739
43.3906
53.9137
136.639
75.7119
68.1366
42.0823
88.1211
42.5667
3.32318
84.2162
152.606
129.436
174.344
18.985
221.776
8.43869
82.7775
76.8736
61.8779
47.017
26.2573
141.034
64.2314
24.8543
119.961
42.7289
75.6935
14.6403
116.133
59.3
59.4354
97.3678
95.5909
54.8617
52.0974
62.5827
117.287
49.0153
131.556
125.226
109.75
119.053
63.5945
49.661
68.6456
15.7
102.057
15.8251
114.788
49.7466
85.7415
14.8821
53.7282
104.179
76.6168
179.615
69.2427
32.661
93.7605
129.052
107.279
100.22
37.3573
149.813
49.8201
11.7751
60.0548
155.796
41.6571
67.5981
19.9603
102.32
96.9091
52.2905
62.1587
66.4165
16.4144
120.906
75.2647
48.5184
81.3928
43.7684
95.5842
8.39747
74.4002
95.9667
75.4003
171.046
52.3897
50.3708
96.5915
35.6362
99.9156
22.1393
85.5175
95.523
99.3399
71.9244
129.915
69.6939
86.2507
107.691
57.2628
70.2955
130.534
71.9978
128.384
58.3972
155.69
56.3503
65.3925
80.563
58.6905
31.9157
75.1161
162.075
54.4904
177.153
54.872
54.0757
53.6328
97.0605
23.764
75.4925
34.9357
36.586
46.8217
28.1231
87.0555
47.6628
92.7769
120.73
119.12
32.2182
106.051
64.7928
121.8
119.021
112.369
119.782
36.5475
106.58
144.266
54.4182
60.9464
39.4692
89.1021
61.0737
88.1558
61.0678
95.4829
149.674
206.515
50.1261
86.9338
43.5537
111.126
65.578
80.4126
82.5803
68.2631
92.0162
85.7482
30.188
90.967
46.395
86.2052
135.187
60.951
63.2727
38.265
97.0228
117.406
59.115
57.6206
66.9815
44.0256
120.446
135.025
28.0853
81.6596
126.455
95.3846
184.452
63.0031
110.81
103.938
7.83272
58.635
51.4723
70.3726
104.529
98.0761
64.5486
105.799
87.051
59.0014
154.806
130.583
169.444
65.1442
131.797
88.8802
97.4265
9.38204
194.416
126.033
145.006
93.5219
49.4726
60.0459
66.9622
72.9529
116.523
125.961
60.8104
60.5717
185.105
71.2216
91.1031
83.3815
42.632
86.4762
15.273
111.253
50.2493
39.6982
84.7319
49.4807
88.9454
111.858
32.4331
106.214
50.9026
75.7452
105.464
101.908
86.8684
46.3506
70.9902
17.0295
104.736
37.2008
171.782
68.526
21.376
68.8517
164.806
81.7211
22.9199
102.188
118.527
32.381
121.864
51.0232
148.802
20.8235
97.0523
173.628
51.2059
9.54361
42.2949
55.4611
40.3756
26.2034
64.8441
114.777
164.927
71.7706
62.4123
149.882
52.3949
320.513
49.2517
52.6401
93.6768
72.3551
80.5097
94.0116
50.0012
42.7579
47.4847
172.807
26.9324
59.9898
17.6713
44.4687
60.2088
10.1948
147.044
101.56
43.731
47.3237
46.1274
40.8503
113.713
54.6875
125.723
61.5338
40.942
74.4565
105.64
169.68
34.093
92.6293
86.766
124.306
76.9369
72.4659
102.06
109.779
102.416
