ENLIGHTEN Version,3.2.36
Measurement ID,20260121-152813-261920-WP-01416
Serial Number,WP-01416
Model,WPX-532-R4-EXR-IC
Detector,S11850-1106
Label,CH2Cl2
Declared Match,
Declared Score,0
Scan Averaging,1
Boxcar,1
Technique,
Baseline Correction Algo,
ROI Pixel Start,80
ROI Pixel End,2046
CCD C4,2.7494990333977454e-13
Slit Width,25
Vignetted,True
Interpolated,False
Wavenumber Correction,0
Raman Intensity Corrected,False
Deconvolved,False
Region,
Laser Power mW,
Battery %,
Device ID,<DeviceID USB USB:0x24aa:0x1000:0:1>
FW Version,10.0.0.10
FPGA Version,035-001
Integration Time,1000
Timestamp,2026-01-21 15:28:13.261920
Note,
Temperature,9.993813157576085
CCD C0,526.0908203125
CCD C1,0.11147542297840118
CCD C2,4.83367011838709e-06
CCD C3,-3.902286493939755e-09
CCD Offset,0
CCD Gain,1.9
CCD Offset Odd,0
CCD Gain Odd,1.9
Laser Wavelength,532.1
Laser Enable,False
Laser Power %,100
Laser Temperature,0
Pixel Count,2048

Pixel,Wavelength,Wavenumber,Processed
80,535.04,103.19,1750.00
81,535.15,107.11,1674.00
82,535.26,111.03,1592.33
83,535.37,114.94,1536.00
84,535.49,118.85,1485.33
85,535.60,122.77,1462.67
86,535.71,126.68,1424.67
87,535.82,130.59,1404.67
88,535.94,134.50,1375.33
89,536.05,138.40,1341.00
90,536.16,142.31,1315.00
91,536.27,146.21,1281.67
92,536.38,150.12,1255.67
93,536.50,154.02,1243.67
94,536.61,157.92,1226.33
95,536.72,161.82,1213.33
96,536.83,165.71,1193.67
97,536.95,169.61,1191.33
98,537.06,173.50,1178.67
99,537.17,177.40,1174.33
100,537.28,181.29,1183.00
101,537.40,185.18,1191.67
102,537.51,189.07,1201.00
103,537.62,192.96,1176.33
104,537.73,196.84,1186.00
105,537.84,200.73,1194.33
106,537.96,204.61,1208.33
107,538.07,208.49,1184.00
108,538.18,212.37,1178.33
109,538.29,216.25,1199.33
110,538.41,220.13,1221.00
111,538.52,224.01,1212.00
112,538.63,227.88,1203.00
113,538.74,231.76,1207.33
114,538.86,235.63,1220.67
115,538.97,239.50,1241.67
116,539.08,243.37,1263.33
117,539.19,247.24,1295.67
118,539.31,251.11,1356.33
119,539.42,254.97,1479.00
120,539.53,258.84,1629.00
121,539.64,262.70,1820.00
122,539.76,266.56,2023.33
123,539.87,270.42,2218.67
124,539.98,274.28,2362.33
125,540.09,278.14,2481.67
126,540.21,281.99,2542.67
127,540.32,285.85,2425.00
128,540.43,289.70,2117.67
129,540.54,293.55,1774.67
130,540.66,297.40,1523.67
131,540.77,301.25,1388.67
132,540.88,305.10,1300.67
133,540.99,308.95,1271.33
134,541.11,312.79,1243.00
135,541.22,316.64,1221.33
136,541.33,320.48,1195.00
137,541.44,324.32,1186.67
138,541.56,328.16,1185.00
139,541.67,332.00,1184.33
140,541.78,335.84,1174.33
141,541.89,339.67,1172.33
142,542.01,343.50,1148.67
143,542.12,347.34,1157.00
144,542.23,351.17,1158.33
145,542.34,355.00,1201.00
146,542.46,358.83,1192.67
147,542.57,362.65,1186.33
148,542.68,366.48,1148.33
149,542.80,370.30,1152.00
150,542.91,374.13,1152.67
151,543.02,377.95,1146.33
152,543.13,381.77,1134.33
153,543.25,385.59,1140.00
154,543.36,389.41,1159.00
155,543.47,393.22,1159.67
156,543.58,397.04,1146.33
157,543.70,400.85,1139.33
158,543.81,404.66,1152.67
159,543.92,408.47,1150.00
160,544.03,412.28,1158.67
161,544.15,416.09,1154.33
162,544.26,419.90,1188.67
163,544.37,423.70,1172.33
164,544.49,427.51,1164.00
165,544.60,431.31,1134.00
166,544.71,435.11,1132.67
167,544.82,438.91,1135.67
168,544.94,442.71,1138.33
169,545.05,446.51,1142.33
170,545.16,450.30,1146.33
171,545.28,454.10,1143.67
172,545.39,457.89,1163.00
173,545.50,461.68,1171.33
174,545.61,465.47,1184.67
175,545.73,469.26,1202.00
176,545.84,473.05,1198.67
177,545.95,476.83,1198.67
178,546.06,480.62,1173.33
179,546.18,484.40,1165.67
180,546.29,488.18,1153.67
181,546.40,491.96,1144.67
182,546.52,495.74,1155.67
183,546.63,499.52,1171.67
184,546.74,503.30,1172.33
185,546.85,507.07,1158.33
186,546.97,510.84,1138.00
187,547.08,514.62,1145.67
188,547.19,518.39,1145.00
189,547.31,522.16,1160.67
190,547.42,525.93,1149.33
191,547.53,529.69,1146.67
192,547.65,533.46,1135.33
193,547.76,537.22,1167.00
194,547.87,540.98,1170.33
195,547.98,544.74,1175.33
196,548.10,548.50,1154.33
197,548.21,552.26,1172.00
198,548.32,556.02,1184.33
199,548.44,559.78,1182.33
200,548.55,563.53,1161.33
201,548.66,567.28,1132.00
202,548.77,571.03,1130.67
203,548.89,574.79,1141.67
204,549.00,578.53,1155.00
205,549.11,582.28,1143.00
206,549.23,586.03,1156.00
207,549.34,589.77,1151.00
208,549.45,593.52,1150.33
209,549.57,597.26,1134.00
210,549.68,601.00,1137.67
211,549.79,604.74,1142.33
212,549.90,608.48,1144.33
213,550.02,612.21,1143.00
214,550.13,615.95,1155.00
215,550.24,619.68,1155.00
216,550.36,623.41,1178.00
217,550.47,627.14,1194.33
218,550.58,630.87,1200.67
219,550.70,634.60,1188.67
220,550.81,638.33,1180.67
221,550.92,642.05,1176.00
222,551.03,645.78,1179.67
223,551.15,649.50,1180.67
224,551.26,653.22,1204.33
225,551.37,656.94,1229.00
226,551.49,660.66,1244.33
227,551.60,664.38,1279.00
228,551.71,668.09,1359.33
229,551.83,671.81,1442.33
230,551.94,675.52,1571.33
231,552.05,679.23,1787.33
232,552.17,682.94,2205.33
233,552.28,686.65,2760.33
234,552.39,690.36,3360.00
235,552.50,694.07,3903.00
236,552.62,697.77,4210.67
237,552.73,701.47,4140.67
238,552.84,705.18,3591.33
239,552.96,708.88,2832.67
240,553.07,712.58,2184.67
241,553.18,716.27,1835.67
242,553.30,719.97,1695.67
243,553.41,723.67,1679.00
244,553.52,727.36,1696.67
245,553.64,731.05,1734.67
246,553.75,734.74,1734.67
247,553.86,738.43,1723.33
248,553.98,742.12,1684.67
249,554.09,745.81,1605.00
250,554.20,749.49,1525.67
251,554.32,753.18,1436.00
252,554.43,756.86,1376.00
253,554.54,760.54,1324.33
254,554.65,764.22,1302.67
255,554.77,767.90,1283.00
256,554.88,771.58,1255.67
257,554.99,775.25,1237.33
258,555.11,778.93,1224.67
259,555.22,782.60,1226.00
260,555.33,786.27,1210.33
261,555.45,789.94,1189.33
262,555.56,793.61,1174.00
263,555.67,797.28,1175.00
264,555.79,800.95,1184.00
265,555.90,804.61,1172.00
266,556.01,808.28,1168.33
267,556.13,811.94,1148.67
268,556.24,815.60,1149.33
269,556.35,819.26,1137.33
270,556.47,822.92,1129.67
271,556.58,826.57,1122.00
272,556.69,830.23,1132.67
273,556.81,833.88,1147.33
274,556.92,837.54,1149.33
275,557.03,841.19,1136.67
276,557.15,844.84,1138.67
277,557.26,848.49,1146.33
278,557.37,852.13,1158.33
279,557.49,855.78,1153.00
280,557.60,859.42,1139.00
281,557.71,863.07,1148.00
282,557.83,866.71,1142.33
283,557.94,870.35,1150.00
284,558.05,873.99,1154.33
285,558.17,877.62,1167.00
286,558.28,881.26,1168.00
287,558.39,884.89,1160.00
288,558.51,888.53,1169.00
289,558.62,892.16,1176.67
290,558.73,895.79,1164.33
291,558.85,899.42,1227.00
292,558.96,903.05,1229.67
293,559.07,906.67,1221.00
294,559.19,910.30,1157.00
295,559.30,913.92,1157.67
296,559.41,917.55,1162.67
297,559.53,921.17,1159.00
298,559.64,924.79,1152.67
299,559.75,928.41,1157.00
300,559.87,932.02,1139.00
301,559.98,935.64,1127.67
302,560.09,939.25,1139.67
303,560.21,942.86,1153.67
304,560.32,946.48,1170.67
305,560.43,950.09,1156.33
306,560.55,953.70,1184.33
307,560.66,957.30,1173.67
308,560.77,960.91,1175.33
309,560.89,964.51,1138.00
310,561.00,968.12,1138.00
311,561.11,971.72,1131.33
312,561.23,975.32,1140.00
313,561.34,978.92,1133.00
314,561.45,982.52,1141.00
315,561.57,986.11,1141.00
316,561.68,989.71,1154.33
317,561.79,993.30,1143.00
318,561.91,996.89,1135.00
319,562.02,1000.48,1131.67
320,562.13,1004.07,1136.67
321,562.25,1007.66,1144.67
322,562.36,1011.25,1137.67
323,562.47,1014.83,1130.67
324,562.59,1018.42,1116.33
325,562.70,1022.00,1122.67
326,562.81,1025.58,1143.67
327,562.93,1029.16,1163.33
328,563.04,1032.74,1159.67
329,563.15,1036.32,1164.67
330,563.27,1039.89,1144.33
331,563.38,1043.47,1147.33
332,563.49,1047.04,1132.33
333,563.61,1050.61,1143.67
334,563.72,1054.18,1132.33
335,563.83,1057.75,1130.33
336,563.95,1061.32,1124.67
337,564.06,1064.89,1143.00
338,564.17,1068.45,1158.67
339,564.29,1072.02,1171.33
340,564.40,1075.58,1155.67
341,564.51,1079.14,1142.67
342,564.63,1082.70,1137.00
343,564.74,1086.26,1142.00
344,564.86,1089.81,1154.00
345,564.97,1093.37,1155.33
346,565.08,1096.92,1163.67
347,565.20,1100.47,1152.00
348,565.31,1104.03,1158.67
349,565.42,1107.58,1162.33
350,565.54,1111.12,1178.33
351,565.65,1114.67,1167.67
352,565.76,1118.22,1167.00
353,565.88,1121.76,1167.67
354,565.99,1125.31,1193.00
355,566.10,1128.85,1209.00
356,566.22,1132.39,1224.67
357,566.33,1135.93,1228.00
358,566.44,1139.46,1247.33
359,566.56,1143.00,1269.00
360,566.67,1146.54,1306.33
361,566.78,1150.07,1323.67
362,566.90,1153.60,1328.67
363,567.01,1157.13,1310.33
364,567.12,1160.66,1277.33
365,567.24,1164.19,1242.00
366,567.35,1167.72,1215.33
367,567.47,1171.24,1212.00
368,567.58,1174.77,1193.67
369,567.69,1178.29,1177.67
370,567.81,1181.81,1164.67
371,567.92,1185.33,1164.67
372,568.03,1188.85,1161.67
373,568.15,1192.36,1163.33
374,568.26,1195.88,1162.00
375,568.37,1199.40,1162.67
376,568.49,1202.91,1142.00
377,568.60,1206.42,1148.33
378,568.71,1209.93,1141.33
379,568.83,1213.44,1166.67
380,568.94,1216.95,1164.00
381,569.05,1220.45,1162.00
382,569.17,1223.96,1147.33
383,569.28,1227.46,1146.00
384,569.40,1230.96,1153.00
385,569.51,1234.46,1151.00
386,569.62,1237.96,1138.33
387,569.74,1241.46,1158.00
388,569.85,1244.96,1179.00
389,569.96,1248.45,1198.00
390,570.08,1251.95,1182.67
391,570.19,1255.44,1171.33
392,570.30,1258.93,1187.33
393,570.42,1262.42,1200.00
394,570.53,1265.91,1191.67
395,570.64,1269.40,1167.67
396,570.76,1272.88,1146.33
397,570.87,1276.37,1157.00
398,570.98,1279.85,1141.67
399,571.10,1283.33,1150.33
400,571.21,1286.81,1137.67
401,571.33,1290.29,1144.67
402,571.44,1293.77,1141.67
403,571.55,1297.25,1138.00
404,571.67,1300.72,1145.67
405,571.78,1304.20,1167.67
406,571.89,1307.67,1167.00
407,572.01,1311.14,1167.00
408,572.12,1314.61,1135.33
409,572.23,1318.08,1161.33
410,572.35,1321.54,1155.67
411,572.46,1325.01,1176.00
412,572.57,1328.47,1160.67
413,572.69,1331.94,1161.33
414,572.80,1335.40,1151.33
415,572.91,1338.86,1149.00
416,573.03,1342.32,1154.67
417,573.14,1345.78,1161.00
418,573.26,1349.23,1168.33
419,573.37,1352.69,1176.00
420,573.48,1356.14,1181.00
421,573.60,1359.59,1171.00
422,573.71,1363.04,1164.67
423,573.82,1366.49,1157.67
424,573.94,1369.94,1175.33
425,574.05,1373.39,1181.67
426,574.16,1376.83,1183.67
427,574.28,1380.27,1179.33
428,574.39,1383.72,1188.00
429,574.50,1387.16,1212.67
430,574.62,1390.60,1222.67
431,574.73,1394.04,1246.00
432,574.85,1397.47,1256.00
433,574.96,1400.91,1296.67
434,575.07,1404.34,1339.67
435,575.19,1407.78,1421.33
436,575.30,1411.21,1491.67
437,575.41,1414.64,1553.67
438,575.53,1418.07,1563.33
439,575.64,1421.50,1556.33
440,575.75,1424.92,1475.00
441,575.87,1428.35,1400.33
442,575.98,1431.77,1311.00
443,576.09,1435.19,1290.67
444,576.21,1438.61,1259.33
445,576.32,1442.03,1246.67
446,576.44,1445.45,1229.00
447,576.55,1448.87,1219.00
448,576.66,1452.28,1227.33
449,576.78,1455.70,1238.00
450,576.89,1459.11,1244.33
451,577.00,1462.52,1224.67
452,577.12,1465.93,1214.67
453,577.23,1469.34,1211.00
454,577.34,1472.75,1219.67
455,577.46,1476.15,1213.33
456,577.57,1479.56,1212.67
457,577.68,1482.96,1199.67
458,577.80,1486.36,1193.33
459,577.91,1489.76,1175.67
460,578.02,1493.16,1168.67
461,578.14,1496.56,1161.00
462,578.25,1499.96,1154.00
463,578.37,1503.35,1165.33
464,578.48,1506.75,1161.00
465,578.59,1510.14,1166.00
466,578.71,1513.53,1152.00
467,578.82,1516.92,1164.67
468,578.93,1520.31,1166.67
469,579.05,1523.70,1174.33
470,579.16,1527.08,1158.33
471,579.27,1530.47,1158.33
472,579.39,1533.85,1158.33
473,579.50,1537.23,1156.33
474,579.61,1540.61,1156.33
475,579.73,1543.99,1152.33
476,579.84,1547.37,1144.33
477,579.96,1550.75,1153.67
478,580.07,1554.12,1150.00
479,580.18,1557.49,1160.00
480,580.30,1560.87,1151.67
481,580.41,1564.24,1161.67
482,580.52,1567.61,1157.33
483,580.64,1570.98,1153.00
484,580.75,1574.34,1143.67
485,580.86,1577.71,1150.00
486,580.98,1581.07,1144.33
487,581.09,1584.44,1138.67
488,581.20,1587.80,1166.33
489,581.32,1591.16,1170.00
490,581.43,1594.52,1182.00
491,581.54,1597.87,1160.00
492,581.66,1601.23,1166.00
493,581.77,1604.59,1168.00
494,581.89,1607.94,1156.00
495,582.00,1611.29,1154.67
496,582.11,1614.64,1144.33
497,582.23,1617.99,1145.00
498,582.34,1621.34,1145.00
499,582.45,1624.69,1143.33
500,582.57,1628.03,1142.00
501,582.68,1631.38,1166.67
502,582.79,1634.72,1167.00
503,582.91,1638.06,1191.67
504,583.02,1641.40,1187.67
505,583.13,1644.74,1196.00
506,583.25,1648.08,1171.33
507,583.36,1651.41,1153.00
508,583.47,1654.75,1153.00
509,583.59,1658.08,1168.67
510,583.70,1661.41,1171.33
511,583.81,1664.75,1162.00
512,583.93,1668.08,1150.00
513,584.04,1671.40,1145.67
514,584.16,1674.73,1155.00
515,584.27,1678.06,1160.67
516,584.38,1681.38,1170.00
517,584.50,1684.70,1157.33
518,584.61,1688.02,1156.67
519,584.72,1691.34,1141.67
520,584.84,1694.66,1144.33
521,584.95,1697.98,1149.67
522,585.06,1701.30,1146.33
523,585.18,1704.61,1145.67
524,585.29,1707.93,1136.67
525,585.40,1711.24,1142.33
526,585.52,1714.55,1135.33
527,585.63,1717.86,1136.67
528,585.74,1721.17,1134.67
529,585.86,1724.47,1146.00
530,585.97,1727.78,1126.33
531,586.08,1731.08,1127.00
532,586.20,1734.38,1129.67
533,586.31,1737.69,1157.00
534,586.43,1740.99,1157.67
535,586.54,1744.29,1164.00
536,586.65,1747.58,1163.33
537,586.77,1750.88,1155.33
538,586.88,1754.17,1149.00
539,586.99,1757.47,1144.00
540,587.11,1760.76,1135.67
541,587.22,1764.05,1128.67
542,587.33,1767.34,1124.00
543,587.45,1770.63,1149.33
544,587.56,1773.91,1146.00
545,587.67,1777.20,1148.67
546,587.79,1780.48,1137.33
547,587.90,1783.77,1142.67
548,588.01,1787.05,1142.67
549,588.13,1790.33,1147.67
550,588.24,1793.61,1151.33
551,588.35,1796.89,1155.67
552,588.47,1800.16,1156.33
553,588.58,1803.44,1150.67
554,588.69,1806.71,1142.00
555,588.81,1809.98,1135.67
556,588.92,1813.25,1142.67
557,589.03,1816.52,1148.33
558,589.15,1819.79,1157.67
559,589.26,1823.06,1146.67
560,589.37,1826.32,1134.67
561,589.49,1829.59,1136.00
562,589.60,1832.85,1133.67
563,589.71,1836.11,1150.67
564,589.83,1839.37,1136.00
565,589.94,1842.63,1143.67
566,590.06,1845.89,1137.33
567,590.17,1849.15,1142.67
568,590.28,1852.40,1156.33
569,590.40,1855.65,1156.33
570,590.51,1858.91,1156.67
571,590.62,1862.16,1136.00
572,590.74,1865.41,1138.00
573,590.85,1868.66,1144.00
574,590.96,1871.90,1162.33
575,591.08,1875.15,1164.67
576,591.19,1878.39,1161.33
577,591.30,1881.64,1155.00
578,591.42,1884.88,1141.67
579,591.53,1888.12,1138.00
580,591.64,1891.36,1127.67
581,591.76,1894.59,1126.33
582,591.87,1897.83,1125.67
583,591.98,1901.07,1127.00
584,592.10,1904.30,1129.00
585,592.21,1907.53,1130.33
586,592.32,1910.76,1149.33
587,592.44,1913.99,1155.00
588,592.55,1917.22,1149.00
589,592.66,1920.45,1135.00
590,592.78,1923.68,1147.00
591,592.89,1926.90,1161.00
592,593.00,1930.12,1149.67
593,593.12,1933.34,1141.00
594,593.23,1936.57,1133.00
595,593.34,1939.78,1135.00
596,593.46,1943.00,1117.67
597,593.57,1946.22,1128.33
598,593.68,1949.43,1145.33
599,593.80,1952.65,1161.33
600,593.91,1955.86,1148.00
601,594.02,1959.07,1165.33
602,594.14,1962.28,1245.67
603,594.25,1965.49,1288.00
604,594.36,1968.70,1262.00
605,594.48,1971.91,1182.33
606,594.59,1975.11,1139.33
607,594.70,1978.31,1149.33
608,594.82,1981.52,1156.33
609,594.93,1984.72,1157.67
610,595.04,1987.92,1144.33
611,595.16,1991.11,1141.67
612,595.27,1994.31,1150.00
613,595.38,1997.51,1160.33
614,595.49,2000.70,1168.67
615,595.61,2003.89,1151.33
616,595.72,2007.09,1141.00
617,595.83,2010.28,1124.00
618,595.95,2013.47,1122.33
619,596.06,2016.65,1124.33
620,596.17,2019.84,1124.33
621,596.29,2023.03,1139.33
622,596.40,2026.21,1147.00
623,596.51,2029.39,1138.00
624,596.63,2032.57,1133.00
625,596.74,2035.75,1124.00
626,596.85,2038.93,1127.00
627,596.97,2042.11,1139.00
628,597.08,2045.28,1151.67
629,597.19,2048.46,1155.67
630,597.31,2051.63,1141.67
631,597.42,2054.81,1132.33
632,597.53,2057.98,1148.00
633,597.65,2061.15,1155.67
634,597.76,2064.31,1162.00
635,597.87,2067.48,1149.33
636,597.99,2070.65,1150.67
637,598.10,2073.81,1140.33
638,598.21,2076.97,1139.67
639,598.32,2080.13,1139.67
640,598.44,2083.29,1142.33
641,598.55,2086.45,1150.67
642,598.66,2089.61,1146.67
643,598.78,2092.77,1156.00
644,598.89,2095.92,1153.67
645,599.00,2099.08,1155.00
646,599.12,2102.23,1152.67
647,599.23,2105.38,1131.00
648,599.34,2108.53,1145.67
649,599.46,2111.68,1148.67
650,599.57,2114.83,1165.67
651,599.68,2117.97,1153.00
652,599.80,2121.12,1149.33
653,599.91,2124.26,1148.67
654,600.02,2127.40,1152.33
655,600.14,2130.54,1160.00
656,600.25,2133.68,1162.67
657,600.36,2136.82,1171.67
658,600.47,2139.96,1171.67
659,600.59,2143.09,1166.67
660,600.70,2146.23,1142.00
661,600.81,2149.36,1126.00
662,600.93,2152.49,1131.00
663,601.04,2155.62,1132.33
664,601.15,2158.75,1138.67
665,601.27,2161.88,1142.33
666,601.38,2165.00,1161.33
667,601.49,2168.13,1160.00
668,601.60,2171.25,1162.67
669,601.72,2174.38,1154.33
670,601.83,2177.50,1145.67
671,601.94,2180.62,1132.33
672,602.06,2183.74,1131.67
673,602.17,2186.85,1147.33
674,602.28,2189.97,1146.67
675,602.40,2193.08,1144.67
676,602.51,2196.20,1143.33
677,602.62,2199.31,1141.33
678,602.74,2202.42,1142.67
679,602.85,2205.53,1147.33
680,602.96,2208.64,1169.00
681,603.07,2211.75,1160.67
682,603.19,2214.85,1154.33
683,603.30,2217.96,1140.33
684,603.41,2221.06,1148.67
685,603.53,2224.16,1133.33
686,603.64,2227.26,1139.67
687,603.75,2230.36,1150.33
688,603.86,2233.46,1147.33
689,603.98,2236.56,1148.67
690,604.09,2239.65,1138.67
691,604.20,2242.74,1157.00
692,604.32,2245.84,1149.33
693,604.43,2248.93,1148.67
694,604.54,2252.02,1136.67
695,604.66,2255.11,1141.33
696,604.77,2258.20,1156.67
697,604.88,2261.28,1162.33
698,604.99,2264.37,1170.33
699,605.11,2267.45,1154.33
700,605.22,2270.53,1165.00
701,605.33,2273.61,1157.33
702,605.45,2276.69,1156.67
703,605.56,2279.77,1152.33
704,605.67,2282.85,1153.67
705,605.78,2285.93,1167.67
706,605.90,2289.00,1158.00
707,606.01,2292.07,1160.67
708,606.12,2295.15,1165.00
709,606.24,2298.22,1165.67
710,606.35,2301.29,1170.67
711,606.46,2304.35,1147.33
712,606.57,2307.42,1163.33
713,606.69,2310.49,1162.67
714,606.80,2313.55,1177.33
715,606.91,2316.62,1165.67
716,607.03,2319.68,1167.00
717,607.14,2322.74,1158.67
718,607.25,2325.80,1168.33
719,607.36,2328.85,1160.67
720,607.48,2331.91,1171.00
721,607.59,2334.97,1176.00
722,607.70,2338.02,1169.67
723,607.81,2341.07,1161.33
724,607.93,2344.13,1162.00
725,608.04,2347.18,1168.33
726,608.15,2350.22,1173.33
727,608.27,2353.27,1157.00
728,608.38,2356.32,1161.33
729,608.49,2359.36,1160.00
730,608.60,2362.41,1166.33
731,608.72,2365.45,1159.00
732,608.83,2368.49,1156.00
733,608.94,2371.53,1150.00
734,609.05,2374.57,1167.67
735,609.17,2377.61,1182.00
736,609.28,2380.64,1182.00
737,609.39,2383.68,1161.67
738,609.51,2386.71,1145.33
739,609.62,2389.75,1146.67
740,609.73,2392.78,1156.67
741,609.84,2395.81,1173.67
742,609.96,2398.84,1180.00
743,610.07,2401.86,1167.33
744,610.18,2404.89,1192.67
745,610.29,2407.91,1199.67
746,610.41,2410.94,1208.00
747,610.52,2413.96,1192.33
748,610.63,2416.98,1222.67
749,610.74,2420.00,1247.33
750,610.86,2423.02,1251.67
751,610.97,2426.03,1240.33
752,611.08,2429.05,1232.33
753,611.19,2432.07,1249.33
754,611.31,2435.08,1241.00
755,611.42,2438.09,1249.00
756,611.53,2441.10,1214.33
757,611.65,2444.11,1197.33
758,611.76,2447.12,1183.00
759,611.87,2450.13,1195.67
760,611.98,2453.13,1205.33
761,612.10,2456.14,1221.67
762,612.21,2459.14,1185.67
763,612.32,2462.14,1169.67
764,612.43,2465.14,1150.67
765,612.55,2468.14,1188.00
766,612.66,2471.14,1195.00
767,612.77,2474.13,1177.33
768,612.88,2477.13,1151.33
769,613.00,2480.12,1152.67
770,613.11,2483.12,1160.67
771,613.22,2486.11,1160.00
772,613.33,2489.10,1163.67
773,613.45,2492.09,1170.00
774,613.56,2495.08,1168.67
775,613.67,2498.06,1190.33
776,613.78,2501.05,1196.67
777,613.90,2504.03,1199.33
778,614.01,2507.02,1168.33
779,614.12,2510.00,1178.00
780,614.23,2512.98,1188.00
781,614.34,2515.96,1204.33
782,614.46,2518.93,1196.00
783,614.57,2521.91,1195.33
784,614.68,2524.89,1179.67
785,614.79,2527.86,1165.67
786,614.91,2530.83,1162.67
787,615.02,2533.80,1171.33
788,615.13,2536.77,1177.33
789,615.24,2539.74,1166.33
790,615.36,2542.71,1176.00
791,615.47,2545.68,1165.67
792,615.58,2548.64,1174.67
793,615.69,2551.61,1161.33
