ENLIGHTEN Version,3.2.36
Measurement ID,20260121-152926-257183-WP-01416
Serial Number,WP-01416
Model,WPX-532-R4-EXR-IC
Detector,S11850-1106
Label,CHCl3
Declared Match,
Declared Score,0
Scan Averaging,1
Boxcar,1
Technique,
Baseline Correction Algo,
ROI Pixel Start,80
ROI Pixel End,2046
CCD C4,2.7494990333977454e-13
Slit Width,25
Vignetted,True
Interpolated,False
Wavenumber Correction,0
Raman Intensity Corrected,False
Deconvolved,False
Region,
Laser Power mW,
Battery %,
Device ID,<DeviceID USB USB:0x24aa:0x1000:0:1>
FW Version,10.0.0.10
FPGA Version,035-001
Integration Time,1000
Timestamp,2026-01-21 15:29:26.257183
Note,
Temperature,10.010850297268917
CCD C0,526.0908203125
CCD C1,0.11147542297840118
CCD C2,4.83367011838709e-06
CCD C3,-3.902286493939755e-09
CCD Offset,0
CCD Gain,1.9
CCD Offset Odd,0
CCD Gain Odd,1.9
Laser Wavelength,532.1
Laser Enable,False
Laser Power %,100
Laser Temperature,0
Pixel Count,2048

Pixel,Wavelength,Wavenumber,Processed
80,535.04,103.19,1372.00
81,535.15,107.11,1326.67
82,535.26,111.03,1285.00
83,535.37,114.94,1252.67
84,535.49,118.85,1225.33
85,535.60,122.77,1223.33
86,535.71,126.68,1216.33
87,535.82,130.59,1200.00
88,535.94,134.50,1181.67
89,536.05,138.40,1170.33
90,536.16,142.31,1174.67
91,536.27,146.21,1153.67
92,536.38,150.12,1136.00
93,536.50,154.02,1136.67
94,536.61,157.92,1142.00
95,536.72,161.82,1140.00
96,536.83,165.71,1128.00
97,536.95,169.61,1119.67
98,537.06,173.50,1114.00
99,537.17,177.40,1116.33
100,537.28,181.29,1129.67
101,537.40,185.18,1139.00
102,537.51,189.07,1157.00
103,537.62,192.96,1141.67
104,537.73,196.84,1160.00
105,537.84,200.73,1171.33
106,537.96,204.61,1199.33
107,538.07,208.49,1190.67
108,538.18,212.37,1202.67
109,538.29,216.25,1237.33
110,538.41,220.13,1284.67
111,538.52,224.01,1327.67
112,538.63,227.88,1417.00
113,538.74,231.76,1591.67
114,538.86,235.63,1840.33
115,538.97,239.50,2111.67
116,539.08,243.37,2347.67
117,539.19,247.24,2540.00
118,539.31,251.11,2719.33
119,539.42,254.97,2894.67
120,539.53,258.84,2927.00
121,539.64,262.70,2682.67
122,539.76,266.56,2224.00
123,539.87,270.42,1765.33
124,539.98,274.28,1476.67
125,540.09,278.14,1323.33
126,540.21,281.99,1255.67
127,540.32,285.85,1216.33
128,540.43,289.70,1194.33
129,540.54,293.55,1191.67
130,540.66,297.40,1188.67
131,540.77,301.25,1201.33
132,540.88,305.10,1192.33
133,540.99,308.95,1205.00
134,541.11,312.79,1203.00
135,541.22,316.64,1202.33
136,541.33,320.48,1191.00
137,541.44,324.32,1203.67
138,541.56,328.16,1216.33
139,541.67,332.00,1264.33
140,541.78,335.84,1360.00
141,541.89,339.67,1590.00
142,542.01,343.50,1888.67
143,542.12,347.34,2245.67
144,542.23,351.17,2549.33
145,542.34,355.00,2814.33
146,542.46,358.83,3029.33
147,542.57,362.65,3127.33
148,542.68,366.48,2902.33
149,542.80,370.30,2362.67
150,542.91,374.13,1772.33
151,543.02,377.95,1396.33
152,543.13,381.77,1248.67
153,543.25,385.59,1208.67
154,543.36,389.41,1196.67
155,543.47,393.22,1186.00
156,543.58,397.04,1161.33
157,543.70,400.85,1149.33
158,543.81,404.66,1156.33
159,543.92,408.47,1149.33
160,544.03,412.28,1153.00
161,544.15,416.09,1150.33
162,544.26,419.90,1175.00
163,544.37,423.70,1157.33
164,544.49,427.51,1149.33
165,544.60,431.31,1130.33
166,544.71,435.11,1135.33
167,544.82,438.91,1128.33
168,544.94,442.71,1127.33
169,545.05,446.51,1122.33
170,545.16,450.30,1131.00
171,545.28,454.10,1132.67
172,545.39,457.89,1163.00
173,545.50,461.68,1172.67
174,545.61,465.47,1183.00
175,545.73,469.26,1197.00
176,545.84,473.05,1191.33
177,545.95,476.83,1195.00
178,546.06,480.62,1178.00
179,546.18,484.40,1174.67
180,546.29,488.18,1155.00
181,546.40,491.96,1136.67
182,546.52,495.74,1139.33
183,546.63,499.52,1153.33
184,546.74,503.30,1150.00
185,546.85,507.07,1141.67
186,546.97,510.84,1127.00
187,547.08,514.62,1138.33
188,547.19,518.39,1134.67
189,547.31,522.16,1148.00
190,547.42,525.93,1124.00
191,547.53,529.69,1120.67
192,547.65,533.46,1108.67
193,547.76,537.22,1139.67
194,547.87,540.98,1138.00
195,547.98,544.74,1139.33
196,548.10,548.50,1121.00
197,548.21,552.26,1132.33
198,548.32,556.02,1142.33
199,548.44,559.78,1145.00
200,548.55,563.53,1134.00
201,548.66,567.28,1108.00
202,548.77,571.03,1107.33
203,548.89,574.79,1108.00
204,549.00,578.53,1122.67
205,549.11,582.28,1113.00
206,549.23,586.03,1131.33
207,549.34,589.77,1120.00
208,549.45,593.52,1122.00
209,549.57,597.26,1110.67
210,549.68,601.00,1108.67
211,549.79,604.74,1115.00
212,549.90,608.48,1124.00
213,550.02,612.21,1136.00
214,550.13,615.95,1141.67
215,550.24,619.68,1140.33
216,550.36,623.41,1162.67
217,550.47,627.14,1183.00
218,550.58,630.87,1190.67
219,550.70,634.60,1196.33
220,550.81,638.33,1225.33
221,550.92,642.05,1334.00
222,551.03,645.78,1603.00
223,551.15,649.50,2039.00
224,551.26,653.22,2568.00
225,551.37,656.94,3076.00
226,551.49,660.66,3507.00
227,551.60,664.38,3645.00
228,551.71,668.09,3318.33
229,551.83,671.81,2559.00
230,551.94,675.52,1829.00
231,552.05,679.23,1374.67
232,552.17,682.94,1229.00
233,552.28,686.65,1177.67
234,552.39,690.36,1152.00
235,552.50,694.07,1138.00
236,552.62,697.77,1137.33
237,552.73,701.47,1195.33
238,552.84,705.18,1210.67
239,552.96,708.88,1236.00
240,553.07,712.58,1225.33
241,553.18,716.27,1251.33
242,553.30,719.97,1252.00
243,553.41,723.67,1283.00
244,553.52,727.36,1334.33
245,553.64,731.05,1401.33
246,553.75,734.74,1475.33
247,553.86,738.43,1551.67
248,553.98,742.12,1657.33
249,554.09,745.81,1718.00
250,554.20,749.49,1785.33
251,554.32,753.18,1796.67
252,554.43,756.86,1811.33
253,554.54,760.54,1762.33
254,554.65,764.22,1711.67
255,554.77,767.90,1627.67
256,554.88,771.58,1546.33
257,554.99,775.25,1466.00
258,555.11,778.93,1387.33
259,555.22,782.60,1333.33
260,555.33,786.27,1271.33
261,555.45,789.94,1217.67
262,555.56,793.61,1176.67
263,555.67,797.28,1164.00
264,555.79,800.95,1165.33
265,555.90,804.61,1145.00
266,556.01,808.28,1136.67
267,556.13,811.94,1122.67
268,556.24,815.60,1119.00
269,556.35,819.26,1109.67
270,556.47,822.92,1097.00
271,556.58,826.57,1085.00
272,556.69,830.23,1085.00
273,556.81,833.88,1092.67
274,556.92,837.54,1100.67
275,557.03,841.19,1095.00
276,557.15,844.84,1098.00
277,557.26,848.49,1106.33
278,557.37,852.13,1110.00
279,557.49,855.78,1099.33
280,557.60,859.42,1089.33
281,557.71,863.07,1094.00
282,557.83,866.71,1094.67
283,557.94,870.35,1092.67
284,558.05,873.99,1096.33
285,558.17,877.62,1097.67
286,558.28,881.26,1100.67
287,558.39,884.89,1090.67
288,558.51,888.53,1099.33
289,558.62,892.16,1095.00
290,558.73,895.79,1089.67
291,558.85,899.42,1136.67
292,558.96,903.05,1145.67
293,559.07,906.67,1135.00
294,559.19,910.30,1092.33
295,559.30,913.92,1099.67
296,559.41,917.55,1107.33
297,559.53,921.17,1104.33
298,559.64,924.79,1095.00
299,559.75,928.41,1099.33
300,559.87,932.02,1089.67
301,559.98,935.64,1085.33
302,560.09,939.25,1095.00
303,560.21,942.86,1110.33
304,560.32,946.48,1123.33
305,560.43,950.09,1114.33
306,560.55,953.70,1139.00
307,560.66,957.30,1127.00
308,560.77,960.91,1132.67
309,560.89,964.51,1089.67
310,561.00,968.12,1091.00
311,561.11,971.72,1076.67
312,561.23,975.32,1086.67
313,561.34,978.92,1084.33
314,561.45,982.52,1089.33
315,561.57,986.11,1084.33
316,561.68,989.71,1095.00
317,561.79,993.30,1097.33
318,561.91,996.89,1101.00
319,562.02,1000.48,1099.67
320,562.13,1004.07,1098.00
321,562.25,1007.66,1100.00
322,562.36,1011.25,1091.67
323,562.47,1014.83,1082.00
324,562.59,1018.42,1079.67
325,562.70,1022.00,1081.67
326,562.81,1025.58,1103.33
327,562.93,1029.16,1112.67
328,563.04,1032.74,1110.67
329,563.15,1036.32,1115.00
330,563.27,1039.89,1095.33
331,563.38,1043.47,1100.67
332,563.49,1047.04,1082.33
333,563.61,1050.61,1093.67
334,563.72,1054.18,1086.00
335,563.83,1057.75,1091.00
336,563.95,1061.32,1079.00
337,564.06,1064.89,1094.67
338,564.17,1068.45,1110.00
339,564.29,1072.02,1133.00
340,564.40,1075.58,1114.67
341,564.51,1079.14,1103.67
342,564.63,1082.70,1092.67
343,564.74,1086.26,1097.33
344,564.86,1089.81,1107.00
345,564.97,1093.37,1099.67
346,565.08,1096.92,1098.33
347,565.20,1100.47,1080.67
348,565.31,1104.03,1102.00
349,565.42,1107.58,1102.67
350,565.54,1111.12,1114.67
351,565.65,1114.67,1099.00
352,565.76,1118.22,1111.67
353,565.88,1121.76,1110.33
354,565.99,1125.31,1129.33
355,566.10,1128.85,1132.33
356,566.22,1132.39,1131.00
357,566.33,1135.93,1107.33
358,566.44,1139.46,1100.33
359,566.56,1143.00,1093.33
360,566.67,1146.54,1102.33
361,566.78,1150.07,1097.33
362,566.90,1153.60,1106.33
363,567.01,1157.13,1113.33
364,567.12,1160.66,1117.67
365,567.24,1164.19,1122.67
366,567.35,1167.72,1120.00
367,567.47,1171.24,1128.33
368,567.58,1174.77,1127.67
369,567.69,1178.29,1127.00
370,567.81,1181.81,1138.33
371,567.92,1185.33,1146.67
372,568.03,1188.85,1160.67
373,568.15,1192.36,1187.33
374,568.26,1195.88,1228.33
375,568.37,1199.40,1290.33
376,568.49,1202.91,1328.33
377,568.60,1206.42,1387.33
378,568.71,1209.93,1411.33
379,568.83,1213.44,1437.33
380,568.94,1216.95,1398.00
381,569.05,1220.45,1341.00
382,569.17,1223.96,1257.33
383,569.28,1227.46,1208.00
384,569.40,1230.96,1172.00
385,569.51,1234.46,1161.33
386,569.62,1237.96,1134.67
387,569.74,1241.46,1141.00
388,569.85,1244.96,1145.33
389,569.96,1248.45,1156.33
390,570.08,1251.95,1145.67
391,570.19,1255.44,1126.00
392,570.30,1258.93,1127.67
393,570.42,1262.42,1128.33
394,570.53,1265.91,1120.33
395,570.64,1269.40,1107.00
396,570.76,1272.88,1095.67
397,570.87,1276.37,1107.00
398,570.98,1279.85,1090.00
399,571.10,1283.33,1087.33
400,571.21,1286.81,1079.67
401,571.33,1290.29,1089.33
402,571.44,1293.77,1084.33
403,571.55,1297.25,1080.00
404,571.67,1300.72,1086.33
405,571.78,1304.20,1114.67
406,571.89,1307.67,1110.00
407,572.01,1311.14,1104.67
408,572.12,1314.61,1078.33
409,572.23,1318.08,1106.33
410,572.35,1321.54,1109.00
411,572.46,1325.01,1126.00
412,572.57,1328.47,1109.00
413,572.69,1331.94,1107.00
414,572.80,1335.40,1090.00
415,572.91,1338.86,1084.33
416,573.03,1342.32,1078.67
417,573.14,1345.78,1086.00
418,573.26,1349.23,1096.00
419,573.37,1352.69,1106.33
420,573.48,1356.14,1105.67
421,573.60,1359.59,1083.33
422,573.71,1363.04,1068.67
423,573.82,1366.49,1065.67
424,573.94,1369.94,1084.67
425,574.05,1373.39,1089.67
426,574.16,1376.83,1089.67
427,574.28,1380.27,1088.00
428,574.39,1383.72,1097.00
429,574.50,1387.16,1103.33
430,574.62,1390.60,1088.00
431,574.73,1394.04,1093.67
432,574.85,1397.47,1076.00
433,574.96,1400.91,1097.00
434,575.07,1404.34,1081.67
435,575.19,1407.78,1098.00
436,575.30,1411.21,1083.33
437,575.41,1414.64,1088.00
438,575.53,1418.07,1086.00
439,575.64,1421.50,1105.00
440,575.75,1424.92,1096.67
441,575.87,1428.35,1099.33
442,575.98,1431.77,1079.00
443,576.09,1435.19,1098.00
444,576.21,1438.61,1095.33
445,576.32,1442.03,1102.33
446,576.44,1445.45,1102.33
447,576.55,1448.87,1099.33
448,576.66,1452.28,1121.67
449,576.78,1455.70,1132.33
450,576.89,1459.11,1144.33
451,577.00,1462.52,1131.00
452,577.12,1465.93,1131.00
453,577.23,1469.34,1131.67
454,577.34,1472.75,1146.67
455,577.46,1476.15,1143.67
456,577.57,1479.56,1156.33
457,577.68,1482.96,1152.67
458,577.80,1486.36,1165.67
459,577.91,1489.76,1154.33
460,578.02,1493.16,1157.00
461,578.14,1496.56,1150.67
462,578.25,1499.96,1157.67
463,578.37,1503.35,1160.00
464,578.48,1506.75,1161.33
465,578.59,1510.14,1160.67
466,578.71,1513.53,1154.33
467,578.82,1516.92,1159.33
468,578.93,1520.31,1156.00
469,579.05,1523.70,1154.00
470,579.16,1527.08,1131.33
471,579.27,1530.47,1125.00
472,579.39,1533.85,1118.33
473,579.50,1537.23,1121.00
474,579.61,1540.61,1125.00
475,579.73,1543.99,1126.00
476,579.84,1547.37,1114.67
477,579.96,1550.75,1115.33
478,580.07,1554.12,1105.33
479,580.18,1557.49,1116.00
480,580.30,1560.87,1109.67
481,580.41,1564.24,1121.00
482,580.52,1567.61,1115.33
483,580.64,1570.98,1107.00
484,580.75,1574.34,1097.67
485,580.86,1577.71,1101.33
486,580.98,1581.07,1095.00
487,581.09,1584.44,1092.33
488,581.20,1587.80,1116.33
489,581.32,1591.16,1117.00
490,581.43,1594.52,1131.00
491,581.54,1597.87,1107.67
492,581.66,1601.23,1114.00
493,581.77,1604.59,1110.67
494,581.89,1607.94,1103.00
495,582.00,1611.29,1098.67
496,582.11,1614.64,1091.33
497,582.23,1617.99,1092.00
498,582.34,1621.34,1095.00
499,582.45,1624.69,1101.67
500,582.57,1628.03,1099.33
501,582.68,1631.38,1124.00
502,582.79,1634.72,1114.67
503,582.91,1638.06,1143.00
504,583.02,1641.40,1139.33
505,583.13,1644.74,1139.33
506,583.25,1648.08,1109.67
507,583.36,1651.41,1099.33
508,583.47,1654.75,1110.00
509,583.59,1658.08,1128.33
510,583.70,1661.41,1131.67
511,583.81,1664.75,1117.33
512,583.93,1668.08,1107.67
513,584.04,1671.40,1103.00
514,584.16,1674.73,1120.67
515,584.27,1678.06,1121.33
516,584.38,1681.38,1124.00
517,584.50,1684.70,1111.33
518,584.61,1688.02,1118.33
519,584.72,1691.34,1098.67
520,584.84,1694.66,1094.33
521,584.95,1697.98,1089.33
522,585.06,1701.30,1092.67
523,585.18,1704.61,1093.67
524,585.29,1707.93,1089.33
525,585.40,1711.24,1093.67
526,585.52,1714.55,1083.67
527,585.63,1717.86,1090.33
528,585.74,1721.17,1091.67
529,585.86,1724.47,1103.00
530,585.97,1727.78,1074.67
531,586.08,1731.08,1076.33
532,586.20,1734.38,1084.67
533,586.31,1737.69,1116.33
534,586.43,1740.99,1121.67
535,586.54,1744.29,1123.33
536,586.65,1747.58,1122.00
537,586.77,1750.88,1109.33
538,586.88,1754.17,1107.67
539,586.99,1757.47,1109.00
540,587.11,1760.76,1100.00
541,587.22,1764.05,1095.00
542,587.33,1767.34,1083.00
543,587.45,1770.63,1109.67
544,587.56,1773.91,1099.33
545,587.67,1777.20,1103.00
546,587.79,1780.48,1089.67
547,587.90,1783.77,1086.67
548,588.01,1787.05,1087.33
549,588.13,1790.33,1095.67
550,588.24,1793.61,1102.67
551,588.35,1796.89,1100.67
552,588.47,1800.16,1103.67
553,588.58,1803.44,1107.33
554,588.69,1806.71,1102.33
555,588.81,1809.98,1093.00
556,588.92,1813.25,1097.33
557,589.03,1816.52,1101.33
558,589.15,1819.79,1107.67
559,589.26,1823.06,1102.00
560,589.37,1826.32,1091.67
561,589.49,1829.59,1084.00
562,589.60,1832.85,1082.33
563,589.71,1836.11,1100.67
564,589.83,1839.37,1095.00
565,589.94,1842.63,1101.67
566,590.06,1845.89,1101.67
567,590.17,1849.15,1103.67
568,590.28,1852.40,1108.33
569,590.40,1855.65,1100.33
570,590.51,1858.91,1105.33
571,590.62,1862.16,1095.67
572,590.74,1865.41,1098.67
573,590.85,1868.66,1101.67
574,590.96,1871.90,1108.67
575,591.08,1875.15,1106.33
576,591.19,1878.39,1104.33
577,591.30,1881.64,1103.67
578,591.42,1884.88,1100.33
579,591.53,1888.12,1109.33
580,591.64,1891.36,1096.00
581,591.76,1894.59,1092.33
582,591.87,1897.83,1077.33
583,591.98,1901.07,1089.33
584,592.10,1904.30,1091.67
585,592.21,1907.53,1101.00
586,592.32,1910.76,1115.67
587,592.44,1913.99,1120.33
588,592.55,1917.22,1110.33
589,592.66,1920.45,1097.67
590,592.78,1923.68,1106.33
591,592.89,1926.90,1118.33
592,593.00,1930.12,1114.00
593,593.12,1933.34,1114.67
594,593.23,1936.57,1106.33
595,593.34,1939.78,1095.67
596,593.46,1943.00,1078.00
597,593.57,1946.22,1088.00
598,593.68,1949.43,1112.00
599,593.80,1952.65,1126.67
600,593.91,1955.86,1118.00
601,594.02,1959.07,1130.00
602,594.14,1962.28,1202.67
603,594.25,1965.49,1240.67
604,594.36,1968.70,1206.33
605,594.48,1971.91,1126.67
606,594.59,1975.11,1090.00
607,594.70,1978.31,1102.00
608,594.82,1981.52,1106.33
609,594.93,1984.72,1098.67
610,595.04,1987.92,1093.00
611,595.16,1991.11,1084.00
612,595.27,1994.31,1095.33
613,595.38,1997.51,1094.67
614,595.49,2000.70,1108.00
615,595.61,2003.89,1087.00
616,595.72,2007.09,1086.33
617,595.83,2010.28,1076.33
618,595.95,2013.47,1074.00
619,596.06,2016.65,1070.33
620,596.17,2019.84,1072.67
621,596.29,2023.03,1087.67
622,596.40,2026.21,1095.33
623,596.51,2029.39,1083.33
624,596.63,2032.57,1078.33
625,596.74,2035.75,1079.67
626,596.85,2038.93,1079.33
627,596.97,2042.11,1096.33
628,597.08,2045.28,1096.33
629,597.19,2048.46,1102.67
630,597.31,2051.63,1092.67
631,597.42,2054.81,1081.00
632,597.53,2057.98,1089.67
633,597.65,2061.15,1090.33
634,597.76,2064.31,1106.33
635,597.87,2067.48,1097.00
636,597.99,2070.65,1100.00
637,598.10,2073.81,1086.00
638,598.21,2076.97,1091.00
639,598.32,2080.13,1094.33
640,598.44,2083.29,1101.33
641,598.55,2086.45,1100.67
642,598.66,2089.61,1095.00
643,598.78,2092.77,1107.00
644,598.89,2095.92,1112.67
645,599.00,2099.08,1108.67
646,599.12,2102.23,1094.00
647,599.23,2105.38,1081.33
648,599.34,2108.53,1100.33
649,599.46,2111.68,1100.33
650,599.57,2114.83,1106.67
651,599.68,2117.97,1096.00
652,599.80,2121.12,1105.00
653,599.91,2124.26,1104.33
654,600.02,2127.40,1103.00
655,600.14,2130.54,1110.67
656,600.25,2133.68,1115.00
657,600.36,2136.82,1120.67
658,600.47,2139.96,1116.67
659,600.59,2143.09,1112.33
660,600.70,2146.23,1095.33
661,600.81,2149.36,1082.67
662,600.93,2152.49,1089.00
663,601.04,2155.62,1084.67
664,601.15,2158.75,1082.33
665,601.27,2161.88,1088.00
666,601.38,2165.00,1108.67
667,601.49,2168.13,1112.33
668,601.60,2171.25,1113.67
669,601.72,2174.38,1103.67
670,601.83,2177.50,1090.33
671,601.94,2180.62,1077.67
672,602.06,2183.74,1074.67
673,602.17,2186.85,1091.33
674,602.28,2189.97,1086.33
675,602.40,2193.08,1088.00
676,602.51,2196.20,1090.33
677,602.62,2199.31,1090.33
678,602.74,2202.42,1097.33
679,602.85,2205.53,1102.33
680,602.96,2208.64,1109.33
681,603.07,2211.75,1097.33
682,603.19,2214.85,1091.67
683,603.30,2217.96,1091.67
684,603.41,2221.06,1101.33
685,603.53,2224.16,1088.67
686,603.64,2227.26,1091.00
687,603.75,2230.36,1096.67
688,603.86,2233.46,1093.67
689,603.98,2236.56,1096.33
690,604.09,2239.65,1086.00
691,604.20,2242.74,1103.00
692,604.32,2245.84,1098.67
693,604.43,2248.93,1097.67
694,604.54,2252.02,1083.67
695,604.66,2255.11,1082.33
696,604.77,2258.20,1093.00
697,604.88,2261.28,1098.33
698,604.99,2264.37,1114.00
699,605.11,2267.45,1102.00
700,605.22,2270.53,1107.67
701,605.33,2273.61,1094.33
702,605.45,2276.69,1095.67
703,605.56,2279.77,1092.33
704,605.67,2282.85,1086.67
705,605.78,2285.93,1096.67
706,605.90,2289.00,1089.67
707,606.01,2292.07,1094.67
708,606.12,2295.15,1099.67
709,606.24,2298.22,1091.67
710,606.35,2301.29,1094.33
711,606.46,2304.35,1067.00
712,606.57,2307.42,1094.00
713,606.69,2310.49,1097.67
714,606.80,2313.55,1118.00
715,606.91,2316.62,1101.67
716,607.03,2319.68,1105.67
717,607.14,2322.74,1095.00
718,607.25,2325.80,1103.67
719,607.36,2328.85,1098.67
720,607.48,2331.91,1115.67
721,607.59,2334.97,1125.33
722,607.70,2338.02,1115.00
723,607.81,2341.07,1105.67
724,607.93,2344.13,1101.33
725,608.04,2347.18,1109.67
726,608.15,2350.22,1111.33
727,608.27,2353.27,1097.33
728,608.38,2356.32,1095.33
729,608.49,2359.36,1101.67
730,608.60,2362.41,1120.67
731,608.72,2365.45,1115.67
732,608.83,2368.49,1114.67
733,608.94,2371.53,1104.00
734,609.05,2374.57,1128.67
735,609.17,2377.61,1143.00
736,609.28,2380.64,1144.67
737,609.39,2383.68,1129.00
738,609.51,2386.71,1108.33
739,609.62,2389.75,1120.33
740,609.73,2392.78,1135.33
741,609.84,2395.81,1160.00
742,609.96,2398.84,1161.33
743,610.07,2401.86,1148.67
744,610.18,2404.89,1173.33
745,610.29,2407.91,1179.00
746,610.41,2410.94,1184.67
747,610.52,2413.96,1175.67
748,610.63,2416.98,1214.33
749,610.74,2420.00,1253.67
750,610.86,2423.02,1264.33
751,610.97,2426.03,1268.00
752,611.08,2429.05,1255.33
753,611.19,2432.07,1274.33
754,611.31,2435.08,1247.33
755,611.42,2438.09,1248.00
756,611.53,2441.10,1203.67
757,611.65,2444.11,1186.67
758,611.76,2447.12,1167.00
759,611.87,2450.13,1171.00
760,611.98,2453.13,1170.33
761,612.10,2456.14,1181.00
762,612.21,2459.14,1145.00
763,612.32,2462.14,1129.67
764,612.43,2465.14,1110.33
765,612.55,2468.14,1148.33
766,612.66,2471.14,1156.00
767,612.77,2474.13,1149.00
768,612.88,2477.13,1119.00
769,613.00,2480.12,1115.00
770,613.11,2483.12,1112.33
771,613.22,2486.11,1117.00
772,613.33,2489.10,1120.33
773,613.45,2492.09,1126.00
774,613.56,2495.08,1120.00
775,613.67,2498.06,1146.67
776,613.78,2501.05,1153.00
777,613.90,2504.03,1147.33
778,614.01,2507.02,1110.00
779,614.12,2510.00,1110.00
780,614.23,2512.98,1123.33
781,614.34,2515.96,1135.33
782,614.46,2518.93,1132.33
783,614.57,2521.91,1125.33
784,614.68,2524.89,1113.33
785,614.79,2527.86,1101.67
786,614.91,2530.83,1099.33
787,615.02,2533.80,1113.67
788,615.13,2536.77,1113.33
789,615.24,2539.74,1108.33
790,615.36,2542.71,1113.00
791,615.47,2545.68,1110.33
792,615.58,2548.64,1118.33
793,615.69,2551.61,1105.67
